frame(num),distance (nm)
0.000000,0.301499
1.000000,0.318072
2.000000,0.291298
3.000000,0.300693
4.000000,0.336080
5.000000,0.291630
6.000000,0.319591
7.000000,0.262359
8.000000,0.257253
9.000000,0.284138
10.000000,0.325136
11.000000,0.318918
12.000000,0.322175
13.000000,0.282834
14.000000,0.318354
15.000000,0.337206
16.000000,0.310881
17.000000,0.291730
18.000000,0.292024
19.000000,0.322670
20.000000,0.308840
21.000000,0.335806
22.000000,0.341107
23.000000,0.280481
24.000000,0.253004
25.000000,0.291090
26.000000,0.303168
27.000000,0.269017
28.000000,0.285810
29.000000,0.398504
30.000000,0.363306
31.000000,0.286299
32.000000,0.255655
33.000000,0.258653
34.000000,0.329411
35.000000,0.344360
36.000000,0.267076
37.000000,0.264527
38.000000,0.389709
39.000000,0.337600
40.000000,0.302131
41.000000,0.290983
42.000000,0.298322
43.000000,0.304710
44.000000,0.322037
45.000000,0.286828
46.000000,0.296992
47.000000,0.322457
48.000000,0.312727
49.000000,0.310941
50.000000,0.321701
51.000000,0.320632
52.000000,0.352638
53.000000,0.320441
54.000000,0.311053
55.000000,0.273614
56.000000,0.325353
57.000000,0.338029
58.000000,0.279717
59.000000,0.316339
60.000000,0.324042
61.000000,0.278264
62.000000,0.302733
63.000000,0.300919
64.000000,0.303007
65.000000,0.293325
66.000000,0.334150
67.000000,0.355869
68.000000,0.313014
69.000000,0.296736
70.000000,0.365455
71.000000,0.283243
72.000000,0.334534
73.000000,0.290176
74.000000,0.267728
75.000000,0.258915
76.000000,0.270492
77.000000,0.296079
78.000000,0.305956
79.000000,0.321196
80.000000,0.308688
81.000000,0.366860
82.000000,0.323016
83.000000,0.322634
84.000000,0.389712
85.000000,0.335466
86.000000,0.338074
87.000000,0.337715
88.000000,0.294530
89.000000,0.279310
90.000000,0.330821
91.000000,0.338356
92.000000,0.301459
93.000000,0.346130
94.000000,0.382928
95.000000,0.346599
96.000000,0.329427
97.000000,0.386376
98.000000,0.347333
99.000000,0.360440
100.000000,0.341657
101.000000,0.334593
102.000000,0.330730
103.000000,0.337212
104.000000,0.345640
105.000000,0.333312
106.000000,0.324879
107.000000,0.322985
108.000000,0.333173
109.000000,0.334249
110.000000,0.311368
111.000000,0.338449
112.000000,0.321351
113.000000,0.339071
114.000000,0.334617
115.000000,0.320264
116.000000,0.255932
117.000000,0.278746
118.000000,0.307385
119.000000,0.295046
120.000000,0.260494
121.000000,0.252566
122.000000,0.265596
123.000000,0.316103
124.000000,0.326057
125.000000,0.260493
126.000000,0.308817
127.000000,0.264175
128.000000,0.299280
129.000000,0.299819
130.000000,0.283517
131.000000,0.313257
132.000000,0.296580
133.000000,0.290062
134.000000,0.340567
135.000000,0.301905
136.000000,0.330417
137.000000,0.328397
138.000000,0.328004
139.000000,0.346464
140.000000,0.341102
141.000000,0.295022
142.000000,0.278334
143.000000,0.285999
144.000000,0.277946
145.000000,0.259693
146.000000,0.290584
147.000000,0.241002
148.000000,0.264621
149.000000,0.316963
150.000000,0.281187
151.000000,0.260298
152.000000,0.242057
153.000000,0.277666
154.000000,0.272176
155.000000,0.282838
156.000000,0.328969
157.000000,0.279835
158.000000,0.282324
159.000000,0.291355
160.000000,0.256760
161.000000,0.276775
162.000000,0.226108
163.000000,0.227998
164.000000,0.231013
165.000000,0.286885
166.000000,0.345701
167.000000,0.264726
168.000000,0.299845
169.000000,0.255218
170.000000,0.229289
171.000000,0.230683
172.000000,0.236194
173.000000,0.269084
174.000000,0.286946
175.000000,0.287521
176.000000,0.293423
177.000000,0.293487
178.000000,0.288180
179.000000,0.253939
180.000000,0.233872
181.000000,0.303849
182.000000,0.235997
183.000000,0.199597
184.000000,0.252211
185.000000,0.181477
186.000000,0.249490
187.000000,0.290481
188.000000,0.260851
189.000000,0.243481
190.000000,0.258313
191.000000,0.242516
192.000000,0.269169
193.000000,0.259950
194.000000,0.255221
195.000000,0.254559
196.000000,0.252409
197.000000,0.229975
198.000000,0.234278
199.000000,0.228757
200.000000,0.227044
201.000000,0.220845
202.000000,0.229388
203.000000,0.239190
204.000000,0.235358
205.000000,0.199203
206.000000,0.200530
207.000000,0.250274
208.000000,0.354433
209.000000,0.282530
210.000000,0.284753
211.000000,0.289305
212.000000,0.296821
213.000000,0.343314
214.000000,0.305624
215.000000,0.273480
216.000000,0.238413
217.000000,0.302215
218.000000,0.307988
219.000000,0.282569
220.000000,0.317958
221.000000,0.299956
222.000000,0.264146
223.000000,0.204306
224.000000,0.227598
225.000000,0.239087
226.000000,0.232463
227.000000,0.205806
228.000000,0.226587
229.000000,0.247862
230.000000,0.250087
231.000000,0.233113
232.000000,0.224827
233.000000,0.231951
234.000000,0.279050
235.000000,0.278379
236.000000,0.282558
237.000000,0.278064
238.000000,0.316610
239.000000,0.331545
240.000000,0.325122
241.000000,0.288859
242.000000,0.330253
243.000000,0.316704
244.000000,0.276881
245.000000,0.297144
246.000000,0.309682
247.000000,0.305421
248.000000,0.301660
249.000000,0.307739
250.000000,0.300659
251.000000,0.273094
252.000000,0.311682
253.000000,0.318890
254.000000,0.329000
255.000000,0.331501
256.000000,0.366826
257.000000,0.296206
258.000000,0.288109
259.000000,0.296198
260.000000,0.325830
261.000000,0.258605
262.000000,0.240997
263.000000,0.237538
264.000000,0.264663
265.000000,0.230090
266.000000,0.376736
267.000000,0.302254
268.000000,0.306682
269.000000,0.280976
270.000000,0.267681
271.000000,0.303898
272.000000,0.300148
273.000000,0.284281
274.000000,0.234099
275.000000,0.308811
276.000000,0.299878
277.000000,0.293926
278.000000,0.269348
279.000000,0.274142
280.000000,0.233770
281.000000,0.270621
282.000000,0.278804
283.000000,0.329135
284.000000,0.304332
285.000000,0.301409
286.000000,0.314574
287.000000,0.319467
288.000000,0.287217
289.000000,0.297337
290.000000,0.286964
291.000000,0.310930
292.000000,0.302530
293.000000,0.269174
294.000000,0.246910
295.000000,0.259457
296.000000,0.289626
297.000000,0.273172
298.000000,0.248736
299.000000,0.300351
300.000000,0.231365
301.000000,0.266917
302.000000,0.237317
303.000000,0.205175
304.000000,0.271700
305.000000,0.240555
306.000000,0.245518
307.000000,0.280752
308.000000,0.310659
309.000000,0.303499
310.000000,0.303980
311.000000,0.304566
312.000000,0.271375
313.000000,0.309615
314.000000,0.281116
315.000000,0.319689
316.000000,0.290171
317.000000,0.276785
318.000000,0.294298
319.000000,0.297598
320.000000,0.312582
321.000000,0.307497
322.000000,0.291373
323.000000,0.373003
324.000000,0.276426
325.000000,0.323773
326.000000,0.295445
327.000000,0.302539
328.000000,0.300412
329.000000,0.299648
330.000000,0.225055
331.000000,0.282208
332.000000,0.258705
333.000000,0.231507
334.000000,0.271262
335.000000,0.282988
336.000000,0.322710
337.000000,0.371704
338.000000,0.326374
339.000000,0.302589
340.000000,0.348124
341.000000,0.273528
342.000000,0.288229
343.000000,0.281608
344.000000,0.236049
345.000000,0.267035
346.000000,0.244875
347.000000,0.238807
348.000000,0.253909
349.000000,0.258598
350.000000,0.276003
351.000000,0.347569
352.000000,0.269131
353.000000,0.287390
354.000000,0.246495
355.000000,0.242227
356.000000,0.212259
357.000000,0.276749
358.000000,0.217336
359.000000,0.206341
360.000000,0.264015
361.000000,0.277921
362.000000,0.314781
363.000000,0.297722
364.000000,0.259012
365.000000,0.290673
366.000000,0.263516
367.000000,0.238104
368.000000,0.293362
369.000000,0.295456
370.000000,0.270351
371.000000,0.263868
372.000000,0.299936
373.000000,0.276635
374.000000,0.228933
375.000000,0.229344
376.000000,0.272641
377.000000,0.236565
378.000000,0.232973
379.000000,0.279693
380.000000,0.332341
381.000000,0.252509
382.000000,0.229480
383.000000,0.216949
384.000000,0.288191
385.000000,0.286737
386.000000,0.252076
387.000000,0.355632
388.000000,0.232256
389.000000,0.257703
390.000000,0.251662
391.000000,0.289310
392.000000,0.248296
393.000000,0.271148
394.000000,0.257652
395.000000,0.226765
396.000000,0.251376
397.000000,0.254970
398.000000,0.299682
399.000000,0.277481
400.000000,0.239634
401.000000,0.180368
402.000000,0.273166
403.000000,0.230043
404.000000,0.218965
405.000000,0.236366
406.000000,0.224505
407.000000,0.186540
408.000000,0.251287
409.000000,0.223068
410.000000,0.228161
411.000000,0.287201
412.000000,0.281387
413.000000,0.240048
414.000000,0.244349
415.000000,0.225275
416.000000,0.234974
417.000000,0.273375
418.000000,0.207584
419.000000,0.266708
420.000000,0.219236
421.000000,0.198591
422.000000,0.259838
423.000000,0.265443
424.000000,0.283104
425.000000,0.240435
426.000000,0.242778
427.000000,0.228130
428.000000,0.275332
429.000000,0.268949
430.000000,0.250808
431.000000,0.257887
432.000000,0.261521
433.000000,0.312909
434.000000,0.324046
435.000000,0.287188
436.000000,0.231210
437.000000,0.236662
438.000000,0.260194
439.000000,0.283263
440.000000,0.282046
441.000000,0.262365
442.000000,0.302262
443.000000,0.299129
444.000000,0.255671
445.000000,0.258932
446.000000,0.264678
447.000000,0.246898
448.000000,0.231766
449.000000,0.215951
450.000000,0.232043
451.000000,0.227013
452.000000,0.209643
453.000000,0.216494
454.000000,0.237488
455.000000,0.233514
456.000000,0.261203
457.000000,0.224461
458.000000,0.204558
459.000000,0.243951
460.000000,0.224980
461.000000,0.249693
462.000000,0.225012
463.000000,0.256596
464.000000,0.236732
465.000000,0.230815
466.000000,0.195594
467.000000,0.269729
468.000000,0.274409
469.000000,0.243833
470.000000,0.258219
471.000000,0.290660
472.000000,0.252049
473.000000,0.245480
474.000000,0.300602
475.000000,0.288792
476.000000,0.240078
477.000000,0.232561
478.000000,0.236010
479.000000,0.200632
480.000000,0.233481
481.000000,0.261816
482.000000,0.259357
483.000000,0.247660
484.000000,0.261609
485.000000,0.221394
486.000000,0.244310
487.000000,0.283866
488.000000,0.238565
489.000000,0.240447
490.000000,0.240940
491.000000,0.271232
492.000000,0.276122
493.000000,0.230798
494.000000,0.254550
495.000000,0.245272
496.000000,0.253971
497.000000,0.311926
498.000000,0.211603
499.000000,0.245331
500.000000,0.248098
501.000000,0.275483
502.000000,0.238497
503.000000,0.233544
504.000000,0.254419
505.000000,0.248270
506.000000,0.217907
507.000000,0.283324
508.000000,0.267684
509.000000,0.272736
510.000000,0.305259
511.000000,0.303698
512.000000,0.302782
513.000000,0.272038
514.000000,0.284699
515.000000,0.250848
516.000000,0.283937
517.000000,0.279083
518.000000,0.288692
519.000000,0.207027
520.000000,0.229043
521.000000,0.223653
522.000000,0.243671
523.000000,0.304994
524.000000,0.280672
525.000000,0.286197
526.000000,0.246303
527.000000,0.246867
528.000000,0.256470
529.000000,0.299162
530.000000,0.262626
531.000000,0.297899
532.000000,0.297126
533.000000,0.287022
534.000000,0.273396
535.000000,0.267822
536.000000,0.289360
537.000000,0.293683
538.000000,0.300132
539.000000,0.258089
540.000000,0.288562
541.000000,0.233139
542.000000,0.229624
543.000000,0.239263
544.000000,0.269715
545.000000,0.290054
546.000000,0.266805
547.000000,0.289366
548.000000,0.247103
549.000000,0.219586
550.000000,0.252369
551.000000,0.278848
552.000000,0.309684
553.000000,0.281472
554.000000,0.267425
555.000000,0.327090
556.000000,0.301053
557.000000,0.328450
558.000000,0.359837
559.000000,0.316022
560.000000,0.351054
561.000000,0.316723
562.000000,0.330232
563.000000,0.288654
564.000000,0.321691
565.000000,0.275807
566.000000,0.311295
567.000000,0.279363
568.000000,0.229425
569.000000,0.275194
570.000000,0.242995
571.000000,0.219004
572.000000,0.275960
573.000000,0.221295
574.000000,0.221800
575.000000,0.183019
576.000000,0.249246
577.000000,0.201868
578.000000,0.237402
579.000000,0.265532
580.000000,0.264616
581.000000,0.207118
582.000000,0.230476
583.000000,0.312820
584.000000,0.247925
585.000000,0.302394
586.000000,0.289691
587.000000,0.251945
588.000000,0.286426
589.000000,0.209120
590.000000,0.245303
591.000000,0.314686
592.000000,0.246897
593.000000,0.253679
594.000000,0.271329
595.000000,0.228536
596.000000,0.207160
597.000000,0.207229
598.000000,0.238617
599.000000,0.292526
600.000000,0.221002
601.000000,0.250954
602.000000,0.262624
603.000000,0.325798
604.000000,0.296678
605.000000,0.286874
606.000000,0.266012
607.000000,0.258401
608.000000,0.277558
609.000000,0.308501
610.000000,0.326265
611.000000,0.242129
612.000000,0.250904
613.000000,0.226118
614.000000,0.259124
615.000000,0.223075
616.000000,0.210562
617.000000,0.259708
618.000000,0.265339
619.000000,0.240197
620.000000,0.224378
621.000000,0.300378
622.000000,0.233465
623.000000,0.235474
624.000000,0.303587
625.000000,0.234807
626.000000,0.243469
627.000000,0.269464
628.000000,0.239190
629.000000,0.234219
630.000000,0.280797
631.000000,0.261517
632.000000,0.248382
633.000000,0.308985
634.000000,0.239630
635.000000,0.218580
636.000000,0.231003
637.000000,0.233385
638.000000,0.198846
639.000000,0.250794
640.000000,0.225202
641.000000,0.302863
642.000000,0.293078
643.000000,0.237254
644.000000,0.263278
645.000000,0.267681
646.000000,0.271839
647.000000,0.220392
648.000000,0.220693
649.000000,0.277363
650.000000,0.266093
651.000000,0.199720
652.000000,0.230285
653.000000,0.209645
654.000000,0.237386
655.000000,0.269273
656.000000,0.267007
657.000000,0.286961
658.000000,0.275356
659.000000,0.249638
660.000000,0.287288
661.000000,0.312560
662.000000,0.240907
663.000000,0.245906
664.000000,0.310151
665.000000,0.265526
666.000000,0.277542
667.000000,0.273000
668.000000,0.287142
669.000000,0.270142
670.000000,0.211097
671.000000,0.203608
672.000000,0.200456
673.000000,0.233221
674.000000,0.210433
675.000000,0.254180
676.000000,0.220199
677.000000,0.237102
678.000000,0.209275
679.000000,0.245830
680.000000,0.213678
681.000000,0.267262
682.000000,0.249870
683.000000,0.264773
684.000000,0.284329
685.000000,0.305522
686.000000,0.266684
687.000000,0.243098
688.000000,0.258306
689.000000,0.273831
690.000000,0.255016
691.000000,0.218301
692.000000,0.189588
693.000000,0.247341
694.000000,0.228454
695.000000,0.232403
696.000000,0.249402
697.000000,0.223327
698.000000,0.225949
699.000000,0.224081
700.000000,0.226223
701.000000,0.213000
702.000000,0.212030
703.000000,0.199014
704.000000,0.258226
705.000000,0.204191
706.000000,0.199325
707.000000,0.258442
708.000000,0.219762
709.000000,0.250030
710.000000,0.219433
711.000000,0.224803
712.000000,0.202281
713.000000,0.241479
714.000000,0.234506
715.000000,0.247685
716.000000,0.315914
717.000000,0.274676
718.000000,0.323962
719.000000,0.265170
720.000000,0.262069
721.000000,0.253826
722.000000,0.215784
723.000000,0.238255
724.000000,0.275161
725.000000,0.225220
726.000000,0.215682
727.000000,0.208567
728.000000,0.244139
729.000000,0.249392
730.000000,0.239706
731.000000,0.192385
732.000000,0.257654
733.000000,0.201019
734.000000,0.207735
735.000000,0.209634
736.000000,0.218834
737.000000,0.265410
738.000000,0.282327
739.000000,0.246789
740.000000,0.206414
741.000000,0.229051
742.000000,0.200633
743.000000,0.196946
744.000000,0.179978
745.000000,0.197687
746.000000,0.198705
747.000000,0.240621
748.000000,0.255003
749.000000,0.255255
750.000000,0.249208
751.000000,0.242935
752.000000,0.221477
753.000000,0.223589
754.000000,0.238810
755.000000,0.216636
756.000000,0.226513
757.000000,0.219737
758.000000,0.229925
759.000000,0.202272
760.000000,0.178118
761.000000,0.248528
762.000000,0.195391
763.000000,0.213546
764.000000,0.264899
765.000000,0.242939
766.000000,0.217077
767.000000,0.244820
768.000000,0.258677
769.000000,0.287567
770.000000,0.290962
771.000000,0.254066
772.000000,0.199825
773.000000,0.220932
774.000000,0.214810
775.000000,0.251672
776.000000,0.229725
777.000000,0.227379
778.000000,0.216060
779.000000,0.266979
780.000000,0.287456
781.000000,0.231029
782.000000,0.220618
783.000000,0.222390
784.000000,0.286851
785.000000,0.211147
786.000000,0.239109
787.000000,0.212020
788.000000,0.217012
789.000000,0.195440
790.000000,0.183003
791.000000,0.243525
792.000000,0.244655
793.000000,0.222316
794.000000,0.291424
795.000000,0.294664
796.000000,0.230440
797.000000,0.269973
798.000000,0.225456
799.000000,0.249775
800.000000,0.263007
801.000000,0.249893
802.000000,0.231102
803.000000,0.251731
804.000000,0.314073
805.000000,0.239005
806.000000,0.221752
807.000000,0.220858
808.000000,0.227341
809.000000,0.202851
810.000000,0.224165
811.000000,0.197425
812.000000,0.198398
813.000000,0.221637
814.000000,0.176636
815.000000,0.194740
816.000000,0.205639
817.000000,0.240594
818.000000,0.199726
819.000000,0.190120
820.000000,0.270306
821.000000,0.286842
822.000000,0.252607
823.000000,0.252586
824.000000,0.233237
825.000000,0.238382
826.000000,0.228503
827.000000,0.253595
828.000000,0.262600
829.000000,0.260815
830.000000,0.196505
831.000000,0.289094
832.000000,0.237340
833.000000,0.247448
834.000000,0.304567
835.000000,0.303774
836.000000,0.257939
837.000000,0.239904
838.000000,0.230120
839.000000,0.263968
840.000000,0.300265
841.000000,0.234779
842.000000,0.263216
843.000000,0.218774
844.000000,0.220760
845.000000,0.236554
846.000000,0.203267
847.000000,0.219618
848.000000,0.206191
849.000000,0.241078
850.000000,0.224727
851.000000,0.248912
852.000000,0.253931
853.000000,0.230539
854.000000,0.246612
855.000000,0.266958
856.000000,0.283058
857.000000,0.219616
858.000000,0.219219
859.000000,0.212197
860.000000,0.223489
861.000000,0.235119
862.000000,0.197263
863.000000,0.220697
864.000000,0.288002
865.000000,0.288560
866.000000,0.232142
867.000000,0.245940
868.000000,0.215453
869.000000,0.249118
870.000000,0.227264
871.000000,0.236701
872.000000,0.232875
873.000000,0.193236
874.000000,0.230799
875.000000,0.211325
876.000000,0.205588
877.000000,0.234823
878.000000,0.261417
879.000000,0.246340
880.000000,0.260193
881.000000,0.250827
882.000000,0.289528
883.000000,0.259353
884.000000,0.248965
885.000000,0.264994
886.000000,0.275009
887.000000,0.257751
888.000000,0.242754
889.000000,0.246620
890.000000,0.237346
891.000000,0.264113
892.000000,0.293435
893.000000,0.216752
894.000000,0.289389
895.000000,0.207512
896.000000,0.297582
897.000000,0.278308
898.000000,0.238525
899.000000,0.230628
900.000000,0.290448
901.000000,0.234005
902.000000,0.232254
903.000000,0.218243
904.000000,0.246275
905.000000,0.274907
906.000000,0.239068
907.000000,0.242548
908.000000,0.243702
909.000000,0.274604
910.000000,0.272015
911.000000,0.227570
912.000000,0.228547
913.000000,0.211098
914.000000,0.228178
915.000000,0.250193
916.000000,0.280872
917.000000,0.300731
918.000000,0.338590
919.000000,0.298122
920.000000,0.312451
921.000000,0.292175
922.000000,0.229519
923.000000,0.299914
924.000000,0.289059
925.000000,0.259108
926.000000,0.259348
927.000000,0.261688
928.000000,0.250039
929.000000,0.263148
930.000000,0.247384
931.000000,0.278857
932.000000,0.266444
933.000000,0.263943
934.000000,0.275647
935.000000,0.283821
936.000000,0.243420
937.000000,0.261479
938.000000,0.267709
939.000000,0.246327
940.000000,0.218213
941.000000,0.242252
942.000000,0.264683
943.000000,0.241200
944.000000,0.245629
945.000000,0.293420
946.000000,0.337032
947.000000,0.266868
948.000000,0.283689
949.000000,0.299376
950.000000,0.313631
951.000000,0.230235
952.000000,0.314735
953.000000,0.329063
954.000000,0.254072
955.000000,0.279090
956.000000,0.314223
957.000000,0.254139
958.000000,0.321470
959.000000,0.259148
960.000000,0.238010
961.000000,0.242952
962.000000,0.262096
963.000000,0.258479
964.000000,0.257761
965.000000,0.286564
966.000000,0.284173
967.000000,0.286008
968.000000,0.279790
969.000000,0.265082
970.000000,0.231415
971.000000,0.252805
972.000000,0.249885
973.000000,0.240253
974.000000,0.237142
975.000000,0.215170
976.000000,0.286803
977.000000,0.305123
978.000000,0.273337
979.000000,0.269730
980.000000,0.277175
981.000000,0.216611
982.000000,0.228506
983.000000,0.258449
984.000000,0.220611
985.000000,0.246659
986.000000,0.276057
987.000000,0.284468
988.000000,0.380030
989.000000,0.227216
990.000000,0.254116
991.000000,0.237255
992.000000,0.243709
993.000000,0.211764
994.000000,0.293358
995.000000,0.290054
996.000000,0.278133
997.000000,0.269999
998.000000,0.265471
999.000000,0.277600
1000.000000,0.324579
1001.000000,0.327657
1002.000000,0.269911
1003.000000,0.254255
1004.000000,0.255374
1005.000000,0.260105
1006.000000,0.216979
1007.000000,0.251301
1008.000000,0.244380
1009.000000,0.280265
1010.000000,0.238993
1011.000000,0.276140
1012.000000,0.297918
1013.000000,0.268427
1014.000000,0.302736
1015.000000,0.307734
1016.000000,0.311591
1017.000000,0.272685
1018.000000,0.262096
1019.000000,0.270332
1020.000000,0.246039
1021.000000,0.263470
1022.000000,0.239912
1023.000000,0.271500
1024.000000,0.245478
1025.000000,0.277550
1026.000000,0.275413
1027.000000,0.203483
1028.000000,0.197505
1029.000000,0.228248
1030.000000,0.203473
1031.000000,0.205635
1032.000000,0.210285
1033.000000,0.204650
1034.000000,0.199414
1035.000000,0.225145
1036.000000,0.241753
1037.000000,0.252664
1038.000000,0.259942
1039.000000,0.244062
1040.000000,0.274530
1041.000000,0.256167
1042.000000,0.188883
1043.000000,0.217510
1044.000000,0.248254
1045.000000,0.223573
1046.000000,0.197744
1047.000000,0.238958
1048.000000,0.218652
1049.000000,0.183229
1050.000000,0.224607
1051.000000,0.200396
1052.000000,0.230174
1053.000000,0.201784
1054.000000,0.209918
1055.000000,0.236353
1056.000000,0.222227
1057.000000,0.194418
1058.000000,0.187657
1059.000000,0.285679
1060.000000,0.286591
1061.000000,0.209568
1062.000000,0.203328
1063.000000,0.225003
1064.000000,0.221447
1065.000000,0.204724
1066.000000,0.231565
1067.000000,0.218878
1068.000000,0.206472
1069.000000,0.226497
1070.000000,0.205024
1071.000000,0.267309
1072.000000,0.270273
1073.000000,0.200741
1074.000000,0.231478
1075.000000,0.217298
1076.000000,0.266279
1077.000000,0.228229
1078.000000,0.315926
1079.000000,0.259328
1080.000000,0.246749
1081.000000,0.250478
1082.000000,0.217995
1083.000000,0.218325
1084.000000,0.203564
1085.000000,0.257297
1086.000000,0.201586
1087.000000,0.223933
1088.000000,0.194379
1089.000000,0.217479
1090.000000,0.219259
1091.000000,0.204195
1092.000000,0.210436
1093.000000,0.228403
1094.000000,0.184922
1095.000000,0.228933
1096.000000,0.189131
1097.000000,0.220628
1098.000000,0.242152
1099.000000,0.194487
1100.000000,0.273846
1101.000000,0.212074
1102.000000,0.249511
1103.000000,0.278589
1104.000000,0.220932
1105.000000,0.231389
1106.000000,0.250957
1107.000000,0.233473
1108.000000,0.252056
1109.000000,0.308067
1110.000000,0.301153
1111.000000,0.258021
1112.000000,0.209453
1113.000000,0.187609
1114.000000,0.218376
1115.000000,0.215459
1116.000000,0.209074
1117.000000,0.228175
1118.000000,0.228979
1119.000000,0.249494
1120.000000,0.212010
1121.000000,0.234833
1122.000000,0.283303
1123.000000,0.300818
1124.000000,0.323346
1125.000000,0.269796
1126.000000,0.334963
1127.000000,0.230204
1128.000000,0.245346
1129.000000,0.236160
1130.000000,0.235255
1131.000000,0.230698
1132.000000,0.235533
1133.000000,0.253172
1134.000000,0.244943
1135.000000,0.263104
1136.000000,0.256460
1137.000000,0.270289
1138.000000,0.221119
1139.000000,0.223325
1140.000000,0.252547
1141.000000,0.258965
1142.000000,0.229100
1143.000000,0.265059
1144.000000,0.296443
1145.000000,0.282195
1146.000000,0.277846
1147.000000,0.222637
1148.000000,0.334040
1149.000000,0.274897
1150.000000,0.257101
1151.000000,0.236650
1152.000000,0.241888
1153.000000,0.229607
1154.000000,0.241854
1155.000000,0.224079
1156.000000,0.256840
1157.000000,0.245516
1158.000000,0.255903
1159.000000,0.260750
1160.000000,0.239857
1161.000000,0.219745
1162.000000,0.218426
1163.000000,0.227319
1164.000000,0.223820
1165.000000,0.273886
1166.000000,0.276852
1167.000000,0.271071
1168.000000,0.267131
1169.000000,0.239870
1170.000000,0.276400
1171.000000,0.258938
1172.000000,0.221719
1173.000000,0.229301
1174.000000,0.253163
1175.000000,0.265598
1176.000000,0.234108
1177.000000,0.267782
1178.000000,0.226038
1179.000000,0.221011
1180.000000,0.209400
1181.000000,0.234171
1182.000000,0.219055
1183.000000,0.258624
1184.000000,0.219080
1185.000000,0.251188
1186.000000,0.270424
1187.000000,0.233728
1188.000000,0.301485
1189.000000,0.271846
1190.000000,0.247059
1191.000000,0.208968
1192.000000,0.325234
1193.000000,0.246177
1194.000000,0.214911
1195.000000,0.211960
1196.000000,0.177887
1197.000000,0.214793
1198.000000,0.208007
1199.000000,0.236415
1200.000000,0.245230
1201.000000,0.251520
1202.000000,0.222576
1203.000000,0.198977
1204.000000,0.217009
1205.000000,0.190972
1206.000000,0.186704
1207.000000,0.214963
1208.000000,0.220292
1209.000000,0.182527
1210.000000,0.239739
1211.000000,0.255343
1212.000000,0.211629
1213.000000,0.216146
1214.000000,0.229590
1215.000000,0.193166
1216.000000,0.219874
1217.000000,0.233173
1218.000000,0.227185
1219.000000,0.237104
1220.000000,0.231545
1221.000000,0.261632
1222.000000,0.226956
1223.000000,0.263848
1224.000000,0.191560
1225.000000,0.261924
1226.000000,0.255008
1227.000000,0.229232
1228.000000,0.278168
1229.000000,0.240265
1230.000000,0.282982
1231.000000,0.251048
1232.000000,0.243224
1233.000000,0.212824
1234.000000,0.231237
1235.000000,0.268117
1236.000000,0.209831
1237.000000,0.207608
1238.000000,0.223368
1239.000000,0.190566
1240.000000,0.189294
1241.000000,0.275782
1242.000000,0.273905
1243.000000,0.239466
1244.000000,0.243634
1245.000000,0.244908
1246.000000,0.239343
1247.000000,0.246181
1248.000000,0.324747
1249.000000,0.239855
1250.000000,0.245551
1251.000000,0.286055
1252.000000,0.257739
1253.000000,0.246865
1254.000000,0.243661
1255.000000,0.254752
1256.000000,0.243525
1257.000000,0.284735
1258.000000,0.193117
1259.000000,0.196995
1260.000000,0.256637
1261.000000,0.292742
1262.000000,0.229965
1263.000000,0.272477
1264.000000,0.250845
1265.000000,0.216190
1266.000000,0.241072
1267.000000,0.223812
1268.000000,0.277656
1269.000000,0.274544
1270.000000,0.299276
1271.000000,0.258111
1272.000000,0.231838
1273.000000,0.257971
1274.000000,0.297067
1275.000000,0.252885
1276.000000,0.294858
1277.000000,0.291277
1278.000000,0.228500
1279.000000,0.261059
1280.000000,0.266899
1281.000000,0.318111
1282.000000,0.274247
1283.000000,0.278972
1284.000000,0.306827
1285.000000,0.303820
1286.000000,0.272192
1287.000000,0.254521
1288.000000,0.298130
1289.000000,0.306391
1290.000000,0.270249
1291.000000,0.301865
1292.000000,0.273996
1293.000000,0.287865
1294.000000,0.268299
1295.000000,0.272833
1296.000000,0.230513
1297.000000,0.214872
1298.000000,0.255382
1299.000000,0.262546
1300.000000,0.242288
1301.000000,0.239621
1302.000000,0.259297
1303.000000,0.197114
1304.000000,0.201408
1305.000000,0.240231
1306.000000,0.250267
1307.000000,0.277488
1308.000000,0.247297
1309.000000,0.200592
1310.000000,0.252023
1311.000000,0.277375
1312.000000,0.246477
1313.000000,0.218167
1314.000000,0.197965
1315.000000,0.199525
1316.000000,0.203880
1317.000000,0.202211
1318.000000,0.211405
1319.000000,0.227233
1320.000000,0.225659
1321.000000,0.277133
1322.000000,0.200198
1323.000000,0.186176
1324.000000,0.175468
1325.000000,0.205290
1326.000000,0.194209
1327.000000,0.200658
1328.000000,0.208532
1329.000000,0.210266
1330.000000,0.215298
1331.000000,0.217938
1332.000000,0.182311
1333.000000,0.257319
1334.000000,0.236382
1335.000000,0.201835
1336.000000,0.232719
1337.000000,0.237195
1338.000000,0.298210
1339.000000,0.242698
1340.000000,0.238020
1341.000000,0.218514
1342.000000,0.247629
1343.000000,0.196561
1344.000000,0.201099
1345.000000,0.210823
1346.000000,0.259698
1347.000000,0.284570
1348.000000,0.227661
1349.000000,0.203157
1350.000000,0.207790
1351.000000,0.198702
1352.000000,0.203217
1353.000000,0.176635
1354.000000,0.205953
1355.000000,0.219996
1356.000000,0.218333
1357.000000,0.227137
1358.000000,0.249886
1359.000000,0.219757
1360.000000,0.220283
1361.000000,0.223257
1362.000000,0.235505
1363.000000,0.268158
1364.000000,0.201409
1365.000000,0.255228
1366.000000,0.225297
1367.000000,0.229970
1368.000000,0.231586
1369.000000,0.229284
1370.000000,0.229546
1371.000000,0.228290
1372.000000,0.243662
1373.000000,0.273645
1374.000000,0.254362
1375.000000,0.249642
1376.000000,0.221598
1377.000000,0.231358
1378.000000,0.213817
1379.000000,0.208262
1380.000000,0.198271
1381.000000,0.199566
1382.000000,0.209367
1383.000000,0.211298
1384.000000,0.276814
1385.000000,0.238043
1386.000000,0.242429
1387.000000,0.223274
1388.000000,0.228193
1389.000000,0.300799
1390.000000,0.296422
1391.000000,0.254527
1392.000000,0.229048
1393.000000,0.222605
1394.000000,0.242159
1395.000000,0.246916
1396.000000,0.242914
1397.000000,0.224919
1398.000000,0.221406
1399.000000,0.289318
1400.000000,0.219807
1401.000000,0.220540
1402.000000,0.202510
1403.000000,0.203370
1404.000000,0.235475
1405.000000,0.202599
1406.000000,0.191722
1407.000000,0.227179
1408.000000,0.235633
1409.000000,0.205011
1410.000000,0.206887
1411.000000,0.210783
1412.000000,0.211337
1413.000000,0.235763
1414.000000,0.243252
1415.000000,0.237696
1416.000000,0.226313
1417.000000,0.230496
1418.000000,0.248789
1419.000000,0.217409
1420.000000,0.195014
1421.000000,0.191120
1422.000000,0.213751
1423.000000,0.258925
1424.000000,0.300597
1425.000000,0.242898
1426.000000,0.236951
1427.000000,0.216365
1428.000000,0.227468
1429.000000,0.186123
1430.000000,0.190823
1431.000000,0.198388
1432.000000,0.216896
1433.000000,0.239920
1434.000000,0.267809
1435.000000,0.194893
1436.000000,0.226064
1437.000000,0.213429
1438.000000,0.200340
1439.000000,0.189246
1440.000000,0.213217
1441.000000,0.191043
1442.000000,0.185926
1443.000000,0.266681
1444.000000,0.276086
1445.000000,0.257580
1446.000000,0.226620
1447.000000,0.194971
1448.000000,0.252948
1449.000000,0.258740
1450.000000,0.240812
1451.000000,0.244709
1452.000000,0.247651
1453.000000,0.278566
1454.000000,0.305234
1455.000000,0.267785
1456.000000,0.241937
1457.000000,0.247834
1458.000000,0.320634
1459.000000,0.264908
1460.000000,0.277819
1461.000000,0.234276
1462.000000,0.234483
1463.000000,0.222404
1464.000000,0.222839
1465.000000,0.234142
1466.000000,0.201298
1467.000000,0.215808
1468.000000,0.211327
1469.000000,0.218933
1470.000000,0.252940
1471.000000,0.265129
1472.000000,0.256708
1473.000000,0.232546
1474.000000,0.232358
1475.000000,0.242512
1476.000000,0.259471
1477.000000,0.232209
1478.000000,0.236887
1479.000000,0.240946
1480.000000,0.260156
1481.000000,0.267022
1482.000000,0.303774
1483.000000,0.270870
1484.000000,0.204485
1485.000000,0.238085
1486.000000,0.231770
1487.000000,0.198868
1488.000000,0.236637
1489.000000,0.197393
1490.000000,0.284402
1491.000000,0.208984
1492.000000,0.291455
1493.000000,0.218010
1494.000000,0.243294
1495.000000,0.195643
1496.000000,0.228003
1497.000000,0.241374
1498.000000,0.214717
1499.000000,0.232147
1500.000000,0.244682
1501.000000,0.239530
1502.000000,0.206326
1503.000000,0.230593
1504.000000,0.220664
1505.000000,0.206732
1506.000000,0.215128
1507.000000,0.215405
1508.000000,0.242782
1509.000000,0.202403
1510.000000,0.253121
1511.000000,0.196890
1512.000000,0.225400
1513.000000,0.265848
1514.000000,0.222537
1515.000000,0.217765
1516.000000,0.203625
1517.000000,0.191906
1518.000000,0.195884
1519.000000,0.220600
1520.000000,0.246814
1521.000000,0.293639
1522.000000,0.252822
1523.000000,0.233307
1524.000000,0.204215
1525.000000,0.240474
1526.000000,0.212086
1527.000000,0.221270
1528.000000,0.195907
1529.000000,0.269021
1530.000000,0.220572
1531.000000,0.237773
1532.000000,0.235064
1533.000000,0.214618
1534.000000,0.226726
1535.000000,0.230964
1536.000000,0.240265
1537.000000,0.230443
1538.000000,0.225550
1539.000000,0.252987
1540.000000,0.224489
1541.000000,0.242011
1542.000000,0.216411
1543.000000,0.212812
1544.000000,0.201871
1545.000000,0.223215
1546.000000,0.222260
1547.000000,0.225137
1548.000000,0.237833
1549.000000,0.210939
1550.000000,0.190898
1551.000000,0.252151
1552.000000,0.253964
1553.000000,0.218619
1554.000000,0.203820
1555.000000,0.196294
1556.000000,0.225475
1557.000000,0.199666
1558.000000,0.210279
1559.000000,0.216196
1560.000000,0.236983
1561.000000,0.199069
1562.000000,0.271139
1563.000000,0.238569
1564.000000,0.238031
1565.000000,0.223029
1566.000000,0.265058
1567.000000,0.193985
1568.000000,0.231062
1569.000000,0.194536
1570.000000,0.212424
1571.000000,0.239126
1572.000000,0.254928
1573.000000,0.220134
1574.000000,0.254467
1575.000000,0.197626
1576.000000,0.187684
1577.000000,0.198660
1578.000000,0.186247
1579.000000,0.183679
1580.000000,0.176271
1581.000000,0.192169
1582.000000,0.257028
1583.000000,0.239671
1584.000000,0.201164
1585.000000,0.166590
1586.000000,0.225918
1587.000000,0.181524
1588.000000,0.190773
1589.000000,0.222608
1590.000000,0.207855
1591.000000,0.205246
1592.000000,0.179880
1593.000000,0.267449
1594.000000,0.259790
1595.000000,0.205391
1596.000000,0.236087
1597.000000,0.209097
1598.000000,0.201086
1599.000000,0.203402
1600.000000,0.210137
1601.000000,0.196296
1602.000000,0.222739
1603.000000,0.216891
1604.000000,0.194239
1605.000000,0.206269
1606.000000,0.209069
1607.000000,0.212205
1608.000000,0.227521
1609.000000,0.204581
1610.000000,0.209098
1611.000000,0.207151
1612.000000,0.212905
1613.000000,0.215078
1614.000000,0.203263
1615.000000,0.221183
1616.000000,0.230375
1617.000000,0.212322
1618.000000,0.204780
1619.000000,0.218952
1620.000000,0.216065
1621.000000,0.208905
1622.000000,0.210672
1623.000000,0.222797
1624.000000,0.242726
1625.000000,0.273427
1626.000000,0.281558
1627.000000,0.266702
1628.000000,0.259645
1629.000000,0.181618
1630.000000,0.191881
1631.000000,0.234243
1632.000000,0.211805
1633.000000,0.199275
1634.000000,0.279283
1635.000000,0.279782
1636.000000,0.315094
1637.000000,0.275113
1638.000000,0.228570
1639.000000,0.232958
1640.000000,0.235751
1641.000000,0.248759
1642.000000,0.262928
1643.000000,0.233904
1644.000000,0.248180
1645.000000,0.280165
1646.000000,0.277450
1647.000000,0.273184
1648.000000,0.226330
1649.000000,0.286180
1650.000000,0.209517
1651.000000,0.215394
1652.000000,0.273358
1653.000000,0.215631
1654.000000,0.274205
1655.000000,0.302803
1656.000000,0.217306
1657.000000,0.216793
1658.000000,0.261051
1659.000000,0.203026
1660.000000,0.204364
1661.000000,0.263622
1662.000000,0.275307
1663.000000,0.301773
1664.000000,0.252828
1665.000000,0.279039
1666.000000,0.274920
1667.000000,0.323067
1668.000000,0.328172
1669.000000,0.327545
1670.000000,0.283683
1671.000000,0.325968
1672.000000,0.324041
1673.000000,0.325167
1674.000000,0.269266
1675.000000,0.288375
1676.000000,0.312790
1677.000000,0.284064
1678.000000,0.241419
1679.000000,0.226578
1680.000000,0.221560
1681.000000,0.307557
1682.000000,0.299674
1683.000000,0.273072
1684.000000,0.282444
1685.000000,0.274143
1686.000000,0.280996
1687.000000,0.251272
1688.000000,0.273718
1689.000000,0.286718
1690.000000,0.305284
1691.000000,0.231896
1692.000000,0.222867
1693.000000,0.225070
1694.000000,0.304585
1695.000000,0.256109
1696.000000,0.215653
1697.000000,0.302813
1698.000000,0.328359
1699.000000,0.323592
1700.000000,0.289949
1701.000000,0.298021
1702.000000,0.257795
1703.000000,0.223234
1704.000000,0.290963
1705.000000,0.230144
1706.000000,0.240812
1707.000000,0.277781
1708.000000,0.301616
1709.000000,0.258852
1710.000000,0.230919
1711.000000,0.262303
1712.000000,0.240019
1713.000000,0.263172
1714.000000,0.290997
1715.000000,0.256205
1716.000000,0.219878
1717.000000,0.232089
1718.000000,0.302378
1719.000000,0.228808
1720.000000,0.307047
1721.000000,0.286784
1722.000000,0.269700
1723.000000,0.360973
1724.000000,0.222009
1725.000000,0.217286
1726.000000,0.228223
1727.000000,0.260970
1728.000000,0.238457
1729.000000,0.226133
1730.000000,0.227208
1731.000000,0.205671
1732.000000,0.199064
1733.000000,0.240655
1734.000000,0.238176
1735.000000,0.203708
1736.000000,0.211488
1737.000000,0.247871
1738.000000,0.248818
1739.000000,0.301806
1740.000000,0.250175
1741.000000,0.237454
1742.000000,0.241311
1743.000000,0.206174
1744.000000,0.206782
1745.000000,0.211612
1746.000000,0.211829
1747.000000,0.194903
1748.000000,0.191096
1749.000000,0.188539
1750.000000,0.221412
1751.000000,0.215134
1752.000000,0.214665
1753.000000,0.239166
1754.000000,0.240286
1755.000000,0.251365
1756.000000,0.267692
1757.000000,0.230247
1758.000000,0.234167
1759.000000,0.261842
1760.000000,0.290557
1761.000000,0.225252
1762.000000,0.217556
1763.000000,0.241384
1764.000000,0.265768
1765.000000,0.325866
1766.000000,0.278232
1767.000000,0.234185
1768.000000,0.307925
1769.000000,0.230960
1770.000000,0.244298
1771.000000,0.280091
1772.000000,0.257686
1773.000000,0.262309
1774.000000,0.269762
1775.000000,0.278102
1776.000000,0.273205
1777.000000,0.267539
1778.000000,0.302943
1779.000000,0.265425
1780.000000,0.269578
1781.000000,0.251580
1782.000000,0.240804
1783.000000,0.258588
1784.000000,0.258026
1785.000000,0.225583
1786.000000,0.271387
1787.000000,0.293949
1788.000000,0.253589
1789.000000,0.311773
1790.000000,0.297386
1791.000000,0.263897
1792.000000,0.265667
1793.000000,0.310333
1794.000000,0.294498
1795.000000,0.271518
1796.000000,0.308716
1797.000000,0.268071
1798.000000,0.243314
1799.000000,0.300645
1800.000000,0.323095
1801.000000,0.279344
1802.000000,0.322675
1803.000000,0.295623
1804.000000,0.308764
1805.000000,0.309908
1806.000000,0.264796
1807.000000,0.248359
1808.000000,0.239501
1809.000000,0.228510
1810.000000,0.242179
1811.000000,0.277168
1812.000000,0.243377
1813.000000,0.283916
1814.000000,0.228409
1815.000000,0.226230
1816.000000,0.229873
1817.000000,0.249165
1818.000000,0.247970
1819.000000,0.262762
1820.000000,0.313957
1821.000000,0.372544
1822.000000,0.293150
1823.000000,0.241063
1824.000000,0.240299
1825.000000,0.245820
1826.000000,0.283945
1827.000000,0.242012
1828.000000,0.239107
1829.000000,0.318301
1830.000000,0.295887
1831.000000,0.298493
1832.000000,0.273250
1833.000000,0.284578
1834.000000,0.254523
1835.000000,0.288291
1836.000000,0.256604
1837.000000,0.308152
1838.000000,0.265468
1839.000000,0.265166
1840.000000,0.260055
1841.000000,0.239489
1842.000000,0.313770
1843.000000,0.256138
1844.000000,0.284781
1845.000000,0.253849
1846.000000,0.210432
1847.000000,0.221609
1848.000000,0.232891
1849.000000,0.234518
1850.000000,0.211994
1851.000000,0.223995
1852.000000,0.283508
1853.000000,0.270535
1854.000000,0.270999
1855.000000,0.263734
1856.000000,0.263176
1857.000000,0.259347
1858.000000,0.225413
1859.000000,0.290910
1860.000000,0.254077
1861.000000,0.297641
1862.000000,0.255215
1863.000000,0.260446
1864.000000,0.304187
1865.000000,0.303543
1866.000000,0.296759
1867.000000,0.298998
1868.000000,0.291873
1869.000000,0.244922
1870.000000,0.243364
1871.000000,0.250476
1872.000000,0.255198
1873.000000,0.261220
1874.000000,0.343189
1875.000000,0.296988
1876.000000,0.283740
1877.000000,0.268486
1878.000000,0.262179
1879.000000,0.266774
1880.000000,0.272274
1881.000000,0.253598
1882.000000,0.243123
1883.000000,0.241635
1884.000000,0.236039
1885.000000,0.283808
1886.000000,0.273006
1887.000000,0.248380
1888.000000,0.215816
1889.000000,0.288541
1890.000000,0.256251
1891.000000,0.315947
1892.000000,0.308364
1893.000000,0.274564
1894.000000,0.286994
1895.000000,0.264693
1896.000000,0.326262
1897.000000,0.253437
1898.000000,0.267806
1899.000000,0.306082
1900.000000,0.291626
1901.000000,0.223046
1902.000000,0.230071
1903.000000,0.283602
1904.000000,0.266192
1905.000000,0.215585
1906.000000,0.214919
1907.000000,0.229166
1908.000000,0.203156
1909.000000,0.227594
1910.000000,0.230895
1911.000000,0.194662
1912.000000,0.188168
1913.000000,0.223577
1914.000000,0.239616
1915.000000,0.247970
1916.000000,0.254468
1917.000000,0.251799
1918.000000,0.249753
1919.000000,0.226111
1920.000000,0.237459
1921.000000,0.241979
1922.000000,0.246492
1923.000000,0.307576
1924.000000,0.274726
1925.000000,0.301578
1926.000000,0.257832
1927.000000,0.281568
1928.000000,0.223578
1929.000000,0.234233
1930.000000,0.261347
1931.000000,0.274485
1932.000000,0.284512
1933.000000,0.275657
1934.000000,0.244252
1935.000000,0.247124
1936.000000,0.284603
1937.000000,0.292031
1938.000000,0.263712
1939.000000,0.245834
1940.000000,0.283910
1941.000000,0.244241
1942.000000,0.295887
1943.000000,0.259835
1944.000000,0.295192
1945.000000,0.296110
1946.000000,0.342788
1947.000000,0.306014
1948.000000,0.286064
1949.000000,0.307341
1950.000000,0.281768
1951.000000,0.262549
1952.000000,0.222920
1953.000000,0.212509
1954.000000,0.240617
1955.000000,0.217646
1956.000000,0.206629
1957.000000,0.222514
1958.000000,0.217833
1959.000000,0.231550
1960.000000,0.224574
1961.000000,0.231382
1962.000000,0.226231
1963.000000,0.221628
1964.000000,0.200515
1965.000000,0.216846
1966.000000,0.227621
1967.000000,0.212653
1968.000000,0.222142
1969.000000,0.245130
1970.000000,0.214755
1971.000000,0.218112
1972.000000,0.316661
1973.000000,0.302476
1974.000000,0.278900
1975.000000,0.277207
1976.000000,0.312366
1977.000000,0.258863
1978.000000,0.255703
1979.000000,0.277145
1980.000000,0.233574
1981.000000,0.254417
1982.000000,0.250977
1983.000000,0.305148
1984.000000,0.301797
1985.000000,0.230313
1986.000000,0.229260
1987.000000,0.260799
1988.000000,0.261893
1989.000000,0.269521
1990.000000,0.260353
1991.000000,0.256914
1992.000000,0.263312
1993.000000,0.240649
1994.000000,0.230811
1995.000000,0.260355
1996.000000,0.238660
1997.000000,0.215071
1998.000000,0.254154
1999.000000,0.244655
2000.000000,0.275946
2001.000000,0.299116
2002.000000,0.295959
2003.000000,0.255920
2004.000000,0.240988
2005.000000,0.224235
2006.000000,0.316242
2007.000000,0.303894
2008.000000,0.266616
2009.000000,0.268285
2010.000000,0.276797
2011.000000,0.299642
2012.000000,0.277095
2013.000000,0.289367
2014.000000,0.224172
2015.000000,0.220728
2016.000000,0.256627
2017.000000,0.222723
2018.000000,0.231657
2019.000000,0.216156
2020.000000,0.318699
2021.000000,0.309952
2022.000000,0.297341
2023.000000,0.249101
2024.000000,0.232900
2025.000000,0.251429
2026.000000,0.222639
2027.000000,0.219204
2028.000000,0.251070
2029.000000,0.241783
2030.000000,0.301325
2031.000000,0.285476
2032.000000,0.243779
2033.000000,0.272626
2034.000000,0.247554
2035.000000,0.247889
2036.000000,0.249684
2037.000000,0.210609
2038.000000,0.247143
2039.000000,0.303364
2040.000000,0.242894
2041.000000,0.275539
2042.000000,0.261866
2043.000000,0.218979
2044.000000,0.235417
2045.000000,0.232631
2046.000000,0.274928
2047.000000,0.222885
2048.000000,0.222678
2049.000000,0.261869
2050.000000,0.257247
2051.000000,0.218214
2052.000000,0.208935
2053.000000,0.266699
2054.000000,0.260218
2055.000000,0.232591
2056.000000,0.243079
2057.000000,0.219449
2058.000000,0.242349
2059.000000,0.200787
2060.000000,0.221025
2061.000000,0.195198
2062.000000,0.212578
2063.000000,0.233597
2064.000000,0.237878
2065.000000,0.273269
2066.000000,0.267588
2067.000000,0.271062
2068.000000,0.272119
2069.000000,0.280800
2070.000000,0.224153
2071.000000,0.222049
2072.000000,0.221491
2073.000000,0.290599
2074.000000,0.285228
2075.000000,0.249734
2076.000000,0.251130
2077.000000,0.292861
2078.000000,0.298011
2079.000000,0.285871
2080.000000,0.252707
2081.000000,0.264801
2082.000000,0.236669
2083.000000,0.283735
2084.000000,0.238430
2085.000000,0.213008
2086.000000,0.233406
2087.000000,0.228869
2088.000000,0.198128
2089.000000,0.231102
2090.000000,0.287687
2091.000000,0.260624
2092.000000,0.232061
2093.000000,0.230625
2094.000000,0.243474
2095.000000,0.252929
2096.000000,0.243508
2097.000000,0.213529
2098.000000,0.246095
2099.000000,0.241827
2100.000000,0.188009
2101.000000,0.209056
2102.000000,0.259699
2103.000000,0.224587
2104.000000,0.209392
2105.000000,0.199520
2106.000000,0.235354
2107.000000,0.232181
2108.000000,0.255938
2109.000000,0.253320
2110.000000,0.247147
2111.000000,0.279116
2112.000000,0.251402
2113.000000,0.226180
2114.000000,0.247593
2115.000000,0.245420
2116.000000,0.322197
2117.000000,0.272577
2118.000000,0.282372
2119.000000,0.257019
2120.000000,0.279099
2121.000000,0.285762
2122.000000,0.282586
2123.000000,0.289208
2124.000000,0.292197
2125.000000,0.288940
2126.000000,0.260287
2127.000000,0.203358
2128.000000,0.251306
2129.000000,0.221607
2130.000000,0.225842
2131.000000,0.235738
2132.000000,0.224158
2133.000000,0.221859
2134.000000,0.231494
2135.000000,0.192155
2136.000000,0.271360
2137.000000,0.219279
2138.000000,0.236984
2139.000000,0.240003
2140.000000,0.273343
2141.000000,0.278722
2142.000000,0.326138
2143.000000,0.247236
2144.000000,0.297929
2145.000000,0.287799
2146.000000,0.329352
2147.000000,0.243532
2148.000000,0.234957
2149.000000,0.281236
2150.000000,0.246922
2151.000000,0.243390
2152.000000,0.197699
2153.000000,0.203156
2154.000000,0.252444
2155.000000,0.255351
2156.000000,0.220049
2157.000000,0.245092
2158.000000,0.211724
2159.000000,0.207936
2160.000000,0.212448
2161.000000,0.185095
2162.000000,0.209485
2163.000000,0.217053
2164.000000,0.260905
2165.000000,0.238801
2166.000000,0.215664
2167.000000,0.244998
2168.000000,0.278292
2169.000000,0.251556
2170.000000,0.220683
2171.000000,0.221838
2172.000000,0.244950
2173.000000,0.276824
2174.000000,0.316162
2175.000000,0.278423
2176.000000,0.281127
2177.000000,0.281169
2178.000000,0.252752
2179.000000,0.295271
2180.000000,0.281770
2181.000000,0.314773
2182.000000,0.335159
2183.000000,0.289513
2184.000000,0.254381
2185.000000,0.200849
2186.000000,0.227007
2187.000000,0.313880
2188.000000,0.219823
2189.000000,0.224326
2190.000000,0.263222
2191.000000,0.246950
2192.000000,0.232138
2193.000000,0.200665
2194.000000,0.258440
2195.000000,0.263135
2196.000000,0.276807
2197.000000,0.354199
2198.000000,0.336466
2199.000000,0.211190
2200.000000,0.241450
2201.000000,0.247461
2202.000000,0.280059
2203.000000,0.285704
2204.000000,0.271399
2205.000000,0.311457
2206.000000,0.290970
2207.000000,0.284669
2208.000000,0.228865
2209.000000,0.230773
2210.000000,0.256863
2211.000000,0.226382
2212.000000,0.235969
2213.000000,0.255872
2214.000000,0.200459
2215.000000,0.228155
2216.000000,0.221597
2217.000000,0.212939
2218.000000,0.212678
2219.000000,0.257381
2220.000000,0.226905
2221.000000,0.231756
2222.000000,0.244555
2223.000000,0.214764
2224.000000,0.209935
2225.000000,0.317543
2226.000000,0.307417
2227.000000,0.296030
2228.000000,0.294262
2229.000000,0.272874
2230.000000,0.293944
2231.000000,0.316559
2232.000000,0.286387
2233.000000,0.287695
2234.000000,0.287381
2235.000000,0.283449
2236.000000,0.256077
2237.000000,0.258382
2238.000000,0.263800
2239.000000,0.236185
2240.000000,0.225991
2241.000000,0.225704
2242.000000,0.221428
2243.000000,0.225177
2244.000000,0.236060
2245.000000,0.227926
2246.000000,0.206816
2247.000000,0.223346
2248.000000,0.225090
2249.000000,0.251440
2250.000000,0.247977
2251.000000,0.246975
2252.000000,0.243184
2253.000000,0.205247
2254.000000,0.237078
2255.000000,0.235631
2256.000000,0.237262
2257.000000,0.296172
2258.000000,0.295447
2259.000000,0.245432
2260.000000,0.303672
2261.000000,0.209309
2262.000000,0.253553
2263.000000,0.201454
2264.000000,0.223884
2265.000000,0.191332
2266.000000,0.215909
2267.000000,0.241482
2268.000000,0.206409
2269.000000,0.234418
2270.000000,0.180260
2271.000000,0.211613
2272.000000,0.302936
2273.000000,0.227538
2274.000000,0.226740
2275.000000,0.225010
2276.000000,0.218390
2277.000000,0.240981
2278.000000,0.244627
2279.000000,0.272329
2280.000000,0.230822
2281.000000,0.229279
2282.000000,0.224106
2283.000000,0.214119
2284.000000,0.237252
2285.000000,0.196190
2286.000000,0.205513
2287.000000,0.212054
2288.000000,0.248016
2289.000000,0.238256
2290.000000,0.234856
2291.000000,0.243076
2292.000000,0.252682
2293.000000,0.227575
2294.000000,0.253960
2295.000000,0.217684
2296.000000,0.260096
2297.000000,0.194551
2298.000000,0.220639
2299.000000,0.232631
2300.000000,0.222832
2301.000000,0.199743
2302.000000,0.228415
2303.000000,0.226002
2304.000000,0.241487
2305.000000,0.253178
2306.000000,0.230358
2307.000000,0.238328
2308.000000,0.227796
2309.000000,0.210627
2310.000000,0.242992
2311.000000,0.238232
2312.000000,0.213323
2313.000000,0.248021
2314.000000,0.240560
2315.000000,0.238616
2316.000000,0.242754
2317.000000,0.315290
2318.000000,0.283605
2319.000000,0.287476
2320.000000,0.297593
2321.000000,0.277147
2322.000000,0.230332
2323.000000,0.265065
2324.000000,0.271328
2325.000000,0.269809
2326.000000,0.300650
2327.000000,0.258648
2328.000000,0.244574
2329.000000,0.239702
2330.000000,0.232595
2331.000000,0.252871
2332.000000,0.231799
2333.000000,0.257240
2334.000000,0.228053
2335.000000,0.238549
2336.000000,0.232503
2337.000000,0.258094
2338.000000,0.279846
2339.000000,0.286217
2340.000000,0.282918
2341.000000,0.308085
2342.000000,0.278876
2343.000000,0.259179
2344.000000,0.259270
2345.000000,0.243182
2346.000000,0.224584
2347.000000,0.241088
2348.000000,0.242173
2349.000000,0.250671
2350.000000,0.244812
2351.000000,0.217568
2352.000000,0.253753
2353.000000,0.257537
2354.000000,0.265325
2355.000000,0.206817
2356.000000,0.245076
2357.000000,0.232653
2358.000000,0.199659
2359.000000,0.210266
2360.000000,0.279248
2361.000000,0.223913
2362.000000,0.223515
2363.000000,0.230687
2364.000000,0.225180
2365.000000,0.217447
2366.000000,0.225653
2367.000000,0.224249
2368.000000,0.224529
2369.000000,0.201585
2370.000000,0.228621
2371.000000,0.293994
2372.000000,0.247227
2373.000000,0.248436
2374.000000,0.241753
2375.000000,0.258579
2376.000000,0.259921
2377.000000,0.285370
2378.000000,0.267118
2379.000000,0.272490
2380.000000,0.291948
2381.000000,0.256465
2382.000000,0.261753
2383.000000,0.249658
2384.000000,0.240152
2385.000000,0.235266
2386.000000,0.232765
2387.000000,0.246625
2388.000000,0.250799
2389.000000,0.220108
2390.000000,0.234970
2391.000000,0.262388
2392.000000,0.266600
2393.000000,0.229137
2394.000000,0.228944
2395.000000,0.206922
2396.000000,0.269003
2397.000000,0.250902
2398.000000,0.234017
2399.000000,0.299569
2400.000000,0.254263
2401.000000,0.254769
2402.000000,0.236347
2403.000000,0.228275
2404.000000,0.265507
2405.000000,0.238074
2406.000000,0.224637
2407.000000,0.220167
2408.000000,0.242397
2409.000000,0.244294
2410.000000,0.247314
2411.000000,0.219881
2412.000000,0.225516
2413.000000,0.225687
2414.000000,0.234260
2415.000000,0.235659
2416.000000,0.235326
2417.000000,0.217846
2418.000000,0.229049
2419.000000,0.225899
2420.000000,0.225121
2421.000000,0.229418
2422.000000,0.220799
2423.000000,0.217534
2424.000000,0.236067
2425.000000,0.239684
2426.000000,0.227616
2427.000000,0.218355
2428.000000,0.229259
2429.000000,0.273431
2430.000000,0.224954
2431.000000,0.205691
2432.000000,0.229346
2433.000000,0.217713
2434.000000,0.221268
2435.000000,0.215039
2436.000000,0.230393
2437.000000,0.231465
2438.000000,0.236625
2439.000000,0.239510
2440.000000,0.232667
2441.000000,0.241857
2442.000000,0.238525
2443.000000,0.231402
2444.000000,0.262685
2445.000000,0.238064
2446.000000,0.233991
2447.000000,0.230507
2448.000000,0.229272
2449.000000,0.216214
2450.000000,0.222874
2451.000000,0.221819
2452.000000,0.221144
2453.000000,0.229948
2454.000000,0.211808
2455.000000,0.203033
2456.000000,0.172900
2457.000000,0.240233
2458.000000,0.270183
2459.000000,0.266723
2460.000000,0.240696
2461.000000,0.263236
2462.000000,0.229145
2463.000000,0.214635
2464.000000,0.244210
2465.000000,0.282725
2466.000000,0.243489
2467.000000,0.250399
2468.000000,0.280037
2469.000000,0.231124
2470.000000,0.240119
2471.000000,0.267328
2472.000000,0.233846
2473.000000,0.263719
2474.000000,0.308228
2475.000000,0.268146
2476.000000,0.266161
2477.000000,0.238510
2478.000000,0.260652
2479.000000,0.224970
2480.000000,0.261303
2481.000000,0.246730
2482.000000,0.317334
2483.000000,0.252357
2484.000000,0.266610
2485.000000,0.264906
2486.000000,0.266958
2487.000000,0.281111
2488.000000,0.255116
2489.000000,0.256026
2490.000000,0.266555
2491.000000,0.308136
2492.000000,0.286101
2493.000000,0.321486
2494.000000,0.385459
2495.000000,0.385722
2496.000000,0.320613
2497.000000,0.356516
2498.000000,0.350541
2499.000000,0.391374
2500.000000,0.350668
2501.000000,0.412090
2502.000000,0.328159
2503.000000,0.317948
2504.000000,0.313771
2505.000000,0.313195
2506.000000,0.310757
2507.000000,0.284523
2508.000000,0.306498
2509.000000,0.300279
2510.000000,0.296416
2511.000000,0.349111
2512.000000,0.358119
2513.000000,0.328994
2514.000000,0.275537
2515.000000,0.249382
2516.000000,0.256783
2517.000000,0.289610
2518.000000,0.285189
2519.000000,0.243138
2520.000000,0.293217
2521.000000,0.348789
2522.000000,0.356533
2523.000000,0.349597
2524.000000,0.311226
2525.000000,0.315744
2526.000000,0.315382
2527.000000,0.363028
2528.000000,0.355012
2529.000000,0.318773
2530.000000,0.361167
2531.000000,0.346054
2532.000000,0.350040
2533.000000,0.326665
2534.000000,0.316229
2535.000000,0.310395
2536.000000,0.308854
2537.000000,0.304684
2538.000000,0.261125
2539.000000,0.311384
2540.000000,0.310079
2541.000000,0.281106
2542.000000,0.284450
2543.000000,0.312837
2544.000000,0.345519
2545.000000,0.257443
2546.000000,0.255383
2547.000000,0.310372
2548.000000,0.349003
2549.000000,0.365598
2550.000000,0.401076
2551.000000,0.349466
2552.000000,0.328945
2553.000000,0.332502
2554.000000,0.351395
2555.000000,0.345270
2556.000000,0.302293
2557.000000,0.341451
2558.000000,0.299849
2559.000000,0.301703
2560.000000,0.314690
2561.000000,0.346070
2562.000000,0.312311
2563.000000,0.358326
2564.000000,0.361457
2565.000000,0.365281
2566.000000,0.352615
2567.000000,0.326528
2568.000000,0.322997
2569.000000,0.367882
2570.000000,0.332888
2571.000000,0.323458
2572.000000,0.339161
2573.000000,0.327181
2574.000000,0.322595
2575.000000,0.328745
2576.000000,0.324079
2577.000000,0.318530
2578.000000,0.370564
2579.000000,0.330775
2580.000000,0.298463
2581.000000,0.338520
2582.000000,0.296738
2583.000000,0.288550
2584.000000,0.290878
2585.000000,0.376170
2586.000000,0.279718
2587.000000,0.349423
2588.000000,0.311039
2589.000000,0.296289
2590.000000,0.294320
2591.000000,0.319742
2592.000000,0.293353
2593.000000,0.259320
2594.000000,0.347904
2595.000000,0.382241
2596.000000,0.378162
2597.000000,0.374539
2598.000000,0.368557
2599.000000,0.369043
2600.000000,0.373958
2601.000000,0.369740
2602.000000,0.333391
2603.000000,0.367967
2604.000000,0.368288
2605.000000,0.242483
2606.000000,0.292345
2607.000000,0.281892
2608.000000,0.279684
2609.000000,0.278506
2610.000000,0.299428
2611.000000,0.280937
2612.000000,0.330385
2613.000000,0.359009
2614.000000,0.310460
2615.000000,0.355467
2616.000000,0.358020
2617.000000,0.358083
2618.000000,0.369255
2619.000000,0.331964
2620.000000,0.330795
2621.000000,0.362787
2622.000000,0.374496
2623.000000,0.340091
2624.000000,0.306847
2625.000000,0.356696
2626.000000,0.380576
2627.000000,0.341725
2628.000000,0.329056
2629.000000,0.357911
2630.000000,0.334211
2631.000000,0.291854
2632.000000,0.332458
2633.000000,0.363053
2634.000000,0.337444
2635.000000,0.293351
2636.000000,0.350557
2637.000000,0.335297
2638.000000,0.292467
2639.000000,0.283000
2640.000000,0.320576
2641.000000,0.365324
2642.000000,0.360465
2643.000000,0.324126
2644.000000,0.322423
2645.000000,0.325283
2646.000000,0.340104
2647.000000,0.342256
2648.000000,0.346168
2649.000000,0.339852
2650.000000,0.342345
2651.000000,0.325100
2652.000000,0.337185
2653.000000,0.293399
2654.000000,0.354122
2655.000000,0.332323
2656.000000,0.301371
2657.000000,0.320384
2658.000000,0.321729
2659.000000,0.322841
2660.000000,0.323556
2661.000000,0.334622
2662.000000,0.315107
2663.000000,0.317204
2664.000000,0.316886
2665.000000,0.328604
2666.000000,0.313831
2667.000000,0.249238
2668.000000,0.324709
2669.000000,0.350020
2670.000000,0.335308
2671.000000,0.301639
2672.000000,0.292559
2673.000000,0.303151
2674.000000,0.293926
2675.000000,0.301045
2676.000000,0.284064
2677.000000,0.311393
2678.000000,0.303913
2679.000000,0.302811
2680.000000,0.332946
2681.000000,0.300858
2682.000000,0.322566
2683.000000,0.326307
2684.000000,0.328817
2685.000000,0.328407
2686.000000,0.287305
2687.000000,0.285276
2688.000000,0.274299
2689.000000,0.287100
2690.000000,0.284322
2691.000000,0.325199
2692.000000,0.280829
2693.000000,0.258031
2694.000000,0.280274
2695.000000,0.265469
2696.000000,0.273133
2697.000000,0.286102
2698.000000,0.302582
2699.000000,0.334799
2700.000000,0.330447
2701.000000,0.334863
2702.000000,0.373118
2703.000000,0.346623
2704.000000,0.350551
2705.000000,0.330669
2706.000000,0.327740
2707.000000,0.320040
2708.000000,0.326304
2709.000000,0.278478
2710.000000,0.278351
2711.000000,0.342272
2712.000000,0.315966
2713.000000,0.315629
2714.000000,0.313071
2715.000000,0.311386
2716.000000,0.317808
2717.000000,0.301688
2718.000000,0.267543
2719.000000,0.327861
2720.000000,0.282979
2721.000000,0.285069
2722.000000,0.264192
2723.000000,0.275972
2724.000000,0.288312
2725.000000,0.290338
2726.000000,0.321118
2727.000000,0.320911
2728.000000,0.310697
2729.000000,0.288361
2730.000000,0.304107
2731.000000,0.278507
2732.000000,0.284930
2733.000000,0.300891
2734.000000,0.290763
2735.000000,0.300802
2736.000000,0.291240
2737.000000,0.283627
2738.000000,0.302824
2739.000000,0.303113
2740.000000,0.315597
2741.000000,0.305141
2742.000000,0.329827
2743.000000,0.351819
2744.000000,0.401218
2745.000000,0.390843
2746.000000,0.369516
2747.000000,0.338346
2748.000000,0.309045
2749.000000,0.342557
2750.000000,0.371336
2751.000000,0.373913
2752.000000,0.346153
2753.000000,0.342266
2754.000000,0.331556
2755.000000,0.338299
2756.000000,0.306241
2757.000000,0.310646
2758.000000,0.344374
2759.000000,0.332591
2760.000000,0.364538
2761.000000,0.391359
2762.000000,0.397937
2763.000000,0.390034
2764.000000,0.398714
2765.000000,0.391140
2766.000000,0.397694
2767.000000,0.406797
2768.000000,0.392016
2769.000000,0.358036
2770.000000,0.343637
2771.000000,0.343552
2772.000000,0.334743
2773.000000,0.343354
2774.000000,0.342938
2775.000000,0.329135
2776.000000,0.322879
2777.000000,0.326346
2778.000000,0.395956
2779.000000,0.381003
2780.000000,0.367762
2781.000000,0.361157
2782.000000,0.361734
2783.000000,0.327589
2784.000000,0.346284
2785.000000,0.339219
2786.000000,0.329426
2787.000000,0.346247
2788.000000,0.338308
2789.000000,0.324727
2790.000000,0.340921
2791.000000,0.353494
2792.000000,0.346695
2793.000000,0.387969
2794.000000,0.355115
2795.000000,0.345094
2796.000000,0.347754
2797.000000,0.375154
2798.000000,0.325760
2799.000000,0.334556
2800.000000,0.339908
2801.000000,0.339866
2802.000000,0.329823
2803.000000,0.337682
2804.000000,0.322101
2805.000000,0.326057
2806.000000,0.342566
2807.000000,0.338591
2808.000000,0.315554
2809.000000,0.358847
2810.000000,0.321128
2811.000000,0.323898
2812.000000,0.331062
2813.000000,0.348314
2814.000000,0.349743
2815.000000,0.331277
2816.000000,0.346919
2817.000000,0.347909
2818.000000,0.334978
2819.000000,0.365044
2820.000000,0.373879
2821.000000,0.372946
2822.000000,0.324982
2823.000000,0.360109
2824.000000,0.359280
2825.000000,0.327442
2826.000000,0.327287
2827.000000,0.351767
2828.000000,0.352240
2829.000000,0.361524
2830.000000,0.385401
2831.000000,0.346326
2832.000000,0.337671
2833.000000,0.407793
2834.000000,0.353005
2835.000000,0.370145
2836.000000,0.345840
2837.000000,0.386609
2838.000000,0.360149
2839.000000,0.352746
2840.000000,0.314113
2841.000000,0.340705
2842.000000,0.350071
2843.000000,0.370337
2844.000000,0.388828
2845.000000,0.388535
2846.000000,0.382931
2847.000000,0.372174
2848.000000,0.322865
2849.000000,0.327285
2850.000000,0.359927
2851.000000,0.374964
2852.000000,0.345818
2853.000000,0.391724
2854.000000,0.396818
2855.000000,0.385848
2856.000000,0.349921
2857.000000,0.392222
2858.000000,0.331011
2859.000000,0.332708
2860.000000,0.359503
2861.000000,0.364212
2862.000000,0.391870
2863.000000,0.427924
2864.000000,0.377297
2865.000000,0.371852
2866.000000,0.390870
2867.000000,0.378600
2868.000000,0.338439
2869.000000,0.337716
2870.000000,0.330740
2871.000000,0.367856
2872.000000,0.368191
2873.000000,0.337572
2874.000000,0.325518
2875.000000,0.326372
2876.000000,0.343717
2877.000000,0.347463
2878.000000,0.353667
2879.000000,0.350369
2880.000000,0.348620
2881.000000,0.348592
2882.000000,0.356054
2883.000000,0.345001
2884.000000,0.344967
2885.000000,0.352362
2886.000000,0.397956
2887.000000,0.384311
2888.000000,0.346137
2889.000000,0.347736
2890.000000,0.332309
2891.000000,0.336533
2892.000000,0.345668
2893.000000,0.346121
2894.000000,0.340369
2895.000000,0.329931
2896.000000,0.312293
2897.000000,0.323841
2898.000000,0.332048
2899.000000,0.357672
2900.000000,0.322648
2901.000000,0.325181
2902.000000,0.376567
2903.000000,0.341841
2904.000000,0.375823
2905.000000,0.320727
2906.000000,0.323290
2907.000000,0.366038
2908.000000,0.329103
2909.000000,0.371850
2910.000000,0.388652
2911.000000,0.398250
2912.000000,0.383950
2913.000000,0.376944
2914.000000,0.337444
2915.000000,0.332050
2916.000000,0.346658
2917.000000,0.275808
2918.000000,0.271655
2919.000000,0.322158
2920.000000,0.325010
2921.000000,0.328162
2922.000000,0.314054
2923.000000,0.365532
2924.000000,0.334844
2925.000000,0.352325
2926.000000,0.408021
2927.000000,0.363461
2928.000000,0.341892
2929.000000,0.328599
2930.000000,0.368100
2931.000000,0.373233
2932.000000,0.331002
2933.000000,0.336318
2934.000000,0.337428
2935.000000,0.344345
2936.000000,0.387752
2937.000000,0.335854
2938.000000,0.374265
2939.000000,0.334056
2940.000000,0.339597
2941.000000,0.367180
2942.000000,0.356417
2943.000000,0.309014
2944.000000,0.315082
2945.000000,0.315770
2946.000000,0.317075
2947.000000,0.324564
2948.000000,0.343521
2949.000000,0.342832
2950.000000,0.314434
2951.000000,0.314583
2952.000000,0.309587
2953.000000,0.309218
2954.000000,0.306995
2955.000000,0.279534
2956.000000,0.330644
2957.000000,0.331087
2958.000000,0.341785
2959.000000,0.333132
2960.000000,0.302724
2961.000000,0.320022
2962.000000,0.324524
2963.000000,0.328387
2964.000000,0.324300
2965.000000,0.332968
2966.000000,0.350111
2967.000000,0.341080
2968.000000,0.328097
2969.000000,0.336119
2970.000000,0.318334
2971.000000,0.318808
2972.000000,0.297631
2973.000000,0.315189
2974.000000,0.334018
2975.000000,0.322583
2976.000000,0.325270
2977.000000,0.319140
2978.000000,0.317928
2979.000000,0.322277
2980.000000,0.356633
2981.000000,0.320349
2982.000000,0.326116
2983.000000,0.316646
2984.000000,0.355274
2985.000000,0.381068
2986.000000,0.359210
2987.000000,0.336638
2988.000000,0.282676
2989.000000,0.334367
2990.000000,0.334527
2991.000000,0.343623
2992.000000,0.336467
2993.000000,0.333977
2994.000000,0.354106
2995.000000,0.355879
2996.000000,0.341187
2997.000000,0.337128
2998.000000,0.340831
2999.000000,0.395766
3000.000000,0.392036
3001.000000,0.356947
3002.000000,0.348768
3003.000000,0.336313
3004.000000,0.317117
3005.000000,0.329759
3006.000000,0.327793
3007.000000,0.340513
3008.000000,0.376102
3009.000000,0.357093
3010.000000,0.353782
3011.000000,0.343788
3012.000000,0.332153
3013.000000,0.366126
3014.000000,0.331893
3015.000000,0.320020
3016.000000,0.344221
3017.000000,0.331248
3018.000000,0.325217
3019.000000,0.334431
3020.000000,0.333091
3021.000000,0.325085
3022.000000,0.325919
3023.000000,0.364367
3024.000000,0.355629
3025.000000,0.394189
3026.000000,0.323896
3027.000000,0.338186
3028.000000,0.387085
3029.000000,0.383954
3030.000000,0.390025
3031.000000,0.341646
3032.000000,0.365350
3033.000000,0.325646
3034.000000,0.313995
3035.000000,0.333942
3036.000000,0.335038
3037.000000,0.324617
3038.000000,0.331313
3039.000000,0.345522
3040.000000,0.359970
3041.000000,0.345572
3042.000000,0.347361
3043.000000,0.393698
3044.000000,0.358779
3045.000000,0.341553
3046.000000,0.331844
3047.000000,0.332740
3048.000000,0.339112
3049.000000,0.342077
3050.000000,0.385882
3051.000000,0.341069
3052.000000,0.328815
3053.000000,0.352439
3054.000000,0.343583
3055.000000,0.349233
3056.000000,0.336821
3057.000000,0.341291
3058.000000,0.349743
3059.000000,0.352632
3060.000000,0.324651
3061.000000,0.321536
3062.000000,0.353885
3063.000000,0.339765
3064.000000,0.342890
3065.000000,0.344944
3066.000000,0.394851
3067.000000,0.354772
3068.000000,0.356906
3069.000000,0.414423
3070.000000,0.428792
3071.000000,0.412415
3072.000000,0.411767
3073.000000,0.400690
3074.000000,0.358093
3075.000000,0.437578
3076.000000,0.346104
3077.000000,0.354470
3078.000000,0.370665
3079.000000,0.368262
3080.000000,0.405096
3081.000000,0.366335
3082.000000,0.385349
3083.000000,0.388196
3084.000000,0.398419
3085.000000,0.396457
3086.000000,0.377402
3087.000000,0.350249
3088.000000,0.396006
3089.000000,0.398556
3090.000000,0.361932
3091.000000,0.435688
3092.000000,0.400453
3093.000000,0.337259
3094.000000,0.306124
3095.000000,0.322963
3096.000000,0.371454
3097.000000,0.369992
3098.000000,0.382430
3099.000000,0.376493
3100.000000,0.377386
3101.000000,0.410577
3102.000000,0.348597
3103.000000,0.333531
3104.000000,0.328595
3105.000000,0.330097
3106.000000,0.335643
3107.000000,0.382000
3108.000000,0.371766
3109.000000,0.327325
3110.000000,0.349344
3111.000000,0.347971
3112.000000,0.344205
3113.000000,0.340912
3114.000000,0.353008
3115.000000,0.344035
3116.000000,0.350110
3117.000000,0.352729
3118.000000,0.394733
3119.000000,0.349053
3120.000000,0.373613
3121.000000,0.393401
3122.000000,0.334208
3123.000000,0.332725
3124.000000,0.327874
3125.000000,0.338908
3126.000000,0.379105
3127.000000,0.420781
3128.000000,0.343926
3129.000000,0.347973
3130.000000,0.352948
3131.000000,0.362836
3132.000000,0.350516
3133.000000,0.380375
3134.000000,0.370580
3135.000000,0.329154
3136.000000,0.325119
3137.000000,0.327753
3138.000000,0.380503
3139.000000,0.338115
3140.000000,0.343568
3141.000000,0.345760
3142.000000,0.353161
3143.000000,0.390275
3144.000000,0.380078
3145.000000,0.343760
3146.000000,0.357504
3147.000000,0.412268
3148.000000,0.365247
3149.000000,0.346711
3150.000000,0.362131
3151.000000,0.449230
3152.000000,0.363519
3153.000000,0.365443
3154.000000,0.365620
3155.000000,0.348045
3156.000000,0.346644
3157.000000,0.343412
3158.000000,0.314032
3159.000000,0.315987
3160.000000,0.360479
3161.000000,0.353177
3162.000000,0.351767
3163.000000,0.354024
3164.000000,0.347390
3165.000000,0.355424
3166.000000,0.359561
3167.000000,0.364597
3168.000000,0.350420
3169.000000,0.335371
3170.000000,0.338013
3171.000000,0.358611
3172.000000,0.357455
3173.000000,0.403326
3174.000000,0.396421
3175.000000,0.341803
3176.000000,0.355766
3177.000000,0.363738
3178.000000,0.326050
3179.000000,0.318383
3180.000000,0.346456
3181.000000,0.350056
3182.000000,0.344684
3183.000000,0.345873
3184.000000,0.349381
3185.000000,0.344997
3186.000000,0.324131
3187.000000,0.337716
3188.000000,0.351205
3189.000000,0.391387
3190.000000,0.350977
3191.000000,0.354302
3192.000000,0.356213
3193.000000,0.346289
3194.000000,0.341112
3195.000000,0.334204
3196.000000,0.337010
3197.000000,0.345217
3198.000000,0.379329
3199.000000,0.425079
3200.000000,0.363470
3201.000000,0.361288
3202.000000,0.383197
3203.000000,0.341623
3204.000000,0.345760
3205.000000,0.349118
3206.000000,0.388207
3207.000000,0.357834
3208.000000,0.343865
3209.000000,0.347614
3210.000000,0.362160
3211.000000,0.394292
3212.000000,0.432050
3213.000000,0.351835
3214.000000,0.354762
3215.000000,0.362159
3216.000000,0.357320
3217.000000,0.302186
3218.000000,0.341846
3219.000000,0.346720
3220.000000,0.361996
3221.000000,0.395011
3222.000000,0.449436
3223.000000,0.407138
3224.000000,0.398611
3225.000000,0.384888
3226.000000,0.390981
3227.000000,0.406473
3228.000000,0.401578
3229.000000,0.404991
3230.000000,0.349881
3231.000000,0.392402
3232.000000,0.377229
3233.000000,0.424454
3234.000000,0.347018
3235.000000,0.361945
3236.000000,0.383352
3237.000000,0.365475
3238.000000,0.333845
3239.000000,0.326542
3240.000000,0.322678
3241.000000,0.360866
3242.000000,0.319796
3243.000000,0.329040
3244.000000,0.302148
3245.000000,0.354268
3246.000000,0.359774
3247.000000,0.404978
3248.000000,0.415880
3249.000000,0.423920
3250.000000,0.379775
3251.000000,0.396951
3252.000000,0.395419
3253.000000,0.385741
3254.000000,0.431445
3255.000000,0.387918
3256.000000,0.340421
3257.000000,0.382970
3258.000000,0.374567
3259.000000,0.329997
3260.000000,0.343061
3261.000000,0.345470
3262.000000,0.389963
3263.000000,0.383205
3264.000000,0.337386
3265.000000,0.342439
3266.000000,0.354790
3267.000000,0.384281
3268.000000,0.378356
3269.000000,0.380217
3270.000000,0.356012
3271.000000,0.349997
3272.000000,0.380274
3273.000000,0.463190
3274.000000,0.344868
3275.000000,0.315499
3276.000000,0.351605
3277.000000,0.350538
3278.000000,0.350411
3279.000000,0.380910
3280.000000,0.345951
3281.000000,0.427547
3282.000000,0.419078
3283.000000,0.348133
3284.000000,0.393444
3285.000000,0.427028
3286.000000,0.411090
3287.000000,0.417716
3288.000000,0.377721
3289.000000,0.407436
3290.000000,0.405057
3291.000000,0.359840
3292.000000,0.356065
3293.000000,0.392614
3294.000000,0.360208
3295.000000,0.367283
3296.000000,0.334882
3297.000000,0.329743
3298.000000,0.378609
3299.000000,0.378408
3300.000000,0.334597
3301.000000,0.292639
3302.000000,0.295026
3303.000000,0.334472
3304.000000,0.426125
3305.000000,0.388087
3306.000000,0.400659
3307.000000,0.360749
3308.000000,0.358826
3309.000000,0.354011
3310.000000,0.389658
3311.000000,0.392274
3312.000000,0.360164
3313.000000,0.347698
3314.000000,0.390781
3315.000000,0.403651
3316.000000,0.461322
3317.000000,0.368082
3318.000000,0.372025
3319.000000,0.380674
3320.000000,0.338298
3321.000000,0.378665
3322.000000,0.332424
3323.000000,0.311688
3324.000000,0.354490
3325.000000,0.404222
3326.000000,0.345366
3327.000000,0.333402
3328.000000,0.341634
3329.000000,0.346735
3330.000000,0.344125
3331.000000,0.357762
3332.000000,0.362781
3333.000000,0.350229
3334.000000,0.352277
3335.000000,0.355211
3336.000000,0.358565
3337.000000,0.351215
3338.000000,0.412963
3339.000000,0.426049
3340.000000,0.405422
3341.000000,0.403805
3342.000000,0.347625
3343.000000,0.350769
3344.000000,0.344623
3345.000000,0.338329
3346.000000,0.425237
3347.000000,0.366171
3348.000000,0.373541
3349.000000,0.375299
3350.000000,0.355406
3351.000000,0.337666
3352.000000,0.300191
3353.000000,0.303023
3354.000000,0.351150
3355.000000,0.366729
3356.000000,0.386569
3357.000000,0.371574
3358.000000,0.376892
3359.000000,0.466429
3360.000000,0.460616
3361.000000,0.407706
3362.000000,0.451310
3363.000000,0.365705
3364.000000,0.373202
3365.000000,0.415010
3366.000000,0.431472
3367.000000,0.382058
3368.000000,0.387965
3369.000000,0.384849
3370.000000,0.428636
3371.000000,0.373186
3372.000000,0.403255
3373.000000,0.408140
3374.000000,0.416889
3375.000000,0.388278
3376.000000,0.345563
3377.000000,0.379552
3378.000000,0.373643
3379.000000,0.373786
3380.000000,0.388559
3381.000000,0.418201
3382.000000,0.326719
3383.000000,0.345437
3384.000000,0.384597
3385.000000,0.380541
3386.000000,0.432191
3387.000000,0.420566
3388.000000,0.337732
3389.000000,0.368712
3390.000000,0.368362
3391.000000,0.356765
3392.000000,0.403340
3393.000000,0.366482
3394.000000,0.380594
3395.000000,0.432224
3396.000000,0.379322
3397.000000,0.427209
3398.000000,0.438213
3399.000000,0.432390
3400.000000,0.377699
3401.000000,0.371148
3402.000000,0.365281
3403.000000,0.340550
3404.000000,0.380741
3405.000000,0.342052
3406.000000,0.321555
3407.000000,0.412214
3408.000000,0.347369
3409.000000,0.405127
3410.000000,0.358809
3411.000000,0.479929
3412.000000,0.379095
3413.000000,0.397576
3414.000000,0.424225
3415.000000,0.426444
3416.000000,0.404154
3417.000000,0.394323
3418.000000,0.397240
3419.000000,0.432327
3420.000000,0.426613
3421.000000,0.388393
3422.000000,0.397083
3423.000000,0.440259
3424.000000,0.390997
3425.000000,0.386224
3426.000000,0.400772
3427.000000,0.381242
3428.000000,0.355632
3429.000000,0.357910
3430.000000,0.379102
3431.000000,0.393478
3432.000000,0.361056
3433.000000,0.395695
3434.000000,0.438376
3435.000000,0.432694
3436.000000,0.415237
3437.000000,0.272927
3438.000000,0.305831
3439.000000,0.338542
3440.000000,0.334010
3441.000000,0.420905
3442.000000,0.380201
3443.000000,0.413042
3444.000000,0.407693
3445.000000,0.388381
3446.000000,0.384998
3447.000000,0.299584
3448.000000,0.333722
3449.000000,0.296226
3450.000000,0.333066
3451.000000,0.438501
3452.000000,0.325316
3453.000000,0.345299
3454.000000,0.332324
3455.000000,0.400762
3456.000000,0.368597
3457.000000,0.328129
3458.000000,0.301308
3459.000000,0.370988
3460.000000,0.329327
3461.000000,0.347561
3462.000000,0.358754
3463.000000,0.402462
3464.000000,0.369050
3465.000000,0.349310
3466.000000,0.429556
3467.000000,0.352353
3468.000000,0.343229
3469.000000,0.234954
3470.000000,0.418559
3471.000000,0.336382
3472.000000,0.377644
3473.000000,0.375498
3474.000000,0.432695
3475.000000,0.306634
3476.000000,0.419525
3477.000000,0.385487
3478.000000,0.290624
3479.000000,0.344281
3480.000000,0.344224
3481.000000,0.373108
3482.000000,0.392917
3483.000000,0.418014
3484.000000,0.388305
3485.000000,0.421674
3486.000000,0.373861
3487.000000,0.343527
3488.000000,0.374773
3489.000000,0.335816
3490.000000,0.295275
3491.000000,0.377315
3492.000000,0.274783
3493.000000,0.271058
3494.000000,0.388551
3495.000000,0.356087
3496.000000,0.393594
3497.000000,0.336659
3498.000000,0.365306
3499.000000,0.297972
3500.000000,0.325695
3501.000000,0.369790
3502.000000,0.417409
3503.000000,0.394705
3504.000000,0.384194
3505.000000,0.382495
3506.000000,0.380892
3507.000000,0.407936
3508.000000,0.452350
3509.000000,0.452127
3510.000000,0.448473
3511.000000,0.399963
3512.000000,0.398699
3513.000000,0.400129
3514.000000,0.387488
3515.000000,0.353489
3516.000000,0.395216
3517.000000,0.402812
3518.000000,0.392349
3519.000000,0.395096
3520.000000,0.380248
3521.000000,0.315840
3522.000000,0.324221
3523.000000,0.361325
3524.000000,0.396793
3525.000000,0.359208
3526.000000,0.361306
3527.000000,0.400390
3528.000000,0.378839
3529.000000,0.378172
3530.000000,0.389516
3531.000000,0.398007
3532.000000,0.361328
3533.000000,0.363562
3534.000000,0.368858
3535.000000,0.310191
3536.000000,0.334848
3537.000000,0.390551
3538.000000,0.342302
3539.000000,0.334435
3540.000000,0.326144
3541.000000,0.339708
3542.000000,0.348931
3543.000000,0.398202
3544.000000,0.357274
3545.000000,0.411531
3546.000000,0.412512
3547.000000,0.409912
3548.000000,0.407054
3549.000000,0.388592
3550.000000,0.360438
3551.000000,0.413502
3552.000000,0.323332
3553.000000,0.387600
3554.000000,0.389427
3555.000000,0.380634
3556.000000,0.382096
3557.000000,0.351235
3558.000000,0.374149
3559.000000,0.325295
3560.000000,0.379761
3561.000000,0.397930
3562.000000,0.404631
3563.000000,0.353032
3564.000000,0.344621
3565.000000,0.371064
3566.000000,0.314153
3567.000000,0.362567
3568.000000,0.342994
3569.000000,0.363335
3570.000000,0.407941
3571.000000,0.417561
3572.000000,0.378015
3573.000000,0.358032
3574.000000,0.347289
3575.000000,0.264824
3576.000000,0.327959
3577.000000,0.337991
3578.000000,0.329762
3579.000000,0.384976
3580.000000,0.345238
3581.000000,0.430587
3582.000000,0.394935
3583.000000,0.405189
3584.000000,0.354381
3585.000000,0.351301
3586.000000,0.338168
3587.000000,0.353767
3588.000000,0.363823
3589.000000,0.406152
3590.000000,0.396111
3591.000000,0.391435
3592.000000,0.328887
3593.000000,0.356683
3594.000000,0.324070
3595.000000,0.357473
3596.000000,0.354523
3597.000000,0.345683
3598.000000,0.391422
3599.000000,0.326428
3600.000000,0.402471
3601.000000,0.388798
3602.000000,0.305799
3603.000000,0.333491
3604.000000,0.330580
3605.000000,0.389968
3606.000000,0.358831
3607.000000,0.419518
3608.000000,0.416443
3609.000000,0.407136
3610.000000,0.399312
3611.000000,0.318747
3612.000000,0.317732
3613.000000,0.370451
3614.000000,0.356398
3615.000000,0.357597
3616.000000,0.433117
3617.000000,0.365595
3618.000000,0.381655
3619.000000,0.342749
3620.000000,0.341298
3621.000000,0.311584
3622.000000,0.420044
3623.000000,0.355542
3624.000000,0.358635
3625.000000,0.347620
3626.000000,0.394765
3627.000000,0.429114
3628.000000,0.386531
3629.000000,0.354441
3630.000000,0.290975
3631.000000,0.310592
3632.000000,0.424063
3633.000000,0.381641
3634.000000,0.388914
3635.000000,0.316329
3636.000000,0.403913
3637.000000,0.363339
3638.000000,0.361287
3639.000000,0.382006
3640.000000,0.317009
3641.000000,0.312599
3642.000000,0.335049
3643.000000,0.386851
3644.000000,0.378931
3645.000000,0.369421
3646.000000,0.294959
3647.000000,0.389516
3648.000000,0.382404
3649.000000,0.381096
3650.000000,0.386845
3651.000000,0.435413
3652.000000,0.438080
3653.000000,0.434080
3654.000000,0.356952
3655.000000,0.348884
3656.000000,0.281314
3657.000000,0.314251
3658.000000,0.346184
3659.000000,0.334397
3660.000000,0.352237
3661.000000,0.349849
3662.000000,0.360071
3663.000000,0.369940
3664.000000,0.326409
3665.000000,0.378049
3666.000000,0.353666
3667.000000,0.308584
3668.000000,0.300028
3669.000000,0.360283
3670.000000,0.352900
3671.000000,0.290437
3672.000000,0.296921
3673.000000,0.320974
3674.000000,0.364942
3675.000000,0.293222
3676.000000,0.354019
3677.000000,0.334728
3678.000000,0.362129
3679.000000,0.306672
3680.000000,0.297266
3681.000000,0.308136
3682.000000,0.322374
3683.000000,0.361098
3684.000000,0.252799
3685.000000,0.308973
3686.000000,0.314816
3687.000000,0.317072
3688.000000,0.266678
3689.000000,0.254896
3690.000000,0.349301
3691.000000,0.361966
3692.000000,0.312110
3693.000000,0.334412
3694.000000,0.302681
3695.000000,0.325550
3696.000000,0.368912
3697.000000,0.366463
3698.000000,0.306598
3699.000000,0.309017
3700.000000,0.280986
3701.000000,0.320501
3702.000000,0.322846
3703.000000,0.320110
3704.000000,0.352930
3705.000000,0.282566
3706.000000,0.328335
3707.000000,0.323935
3708.000000,0.345584
3709.000000,0.329447
3710.000000,0.366482
3711.000000,0.400068
3712.000000,0.311653
3713.000000,0.275046
3714.000000,0.301711
3715.000000,0.278331
3716.000000,0.319442
3717.000000,0.316571
3718.000000,0.277368
3719.000000,0.284563
3720.000000,0.337624
3721.000000,0.380553
3722.000000,0.360629
3723.000000,0.373933
3724.000000,0.374460
3725.000000,0.369178
3726.000000,0.357529
3727.000000,0.311510
3728.000000,0.315287
3729.000000,0.389161
3730.000000,0.344646
3731.000000,0.426583
3732.000000,0.373110
3733.000000,0.328882
3734.000000,0.287198
3735.000000,0.344836
3736.000000,0.235457
3737.000000,0.302217
3738.000000,0.289054
3739.000000,0.297791
3740.000000,0.302442
3741.000000,0.261478
3742.000000,0.301187
3743.000000,0.387884
3744.000000,0.377793
3745.000000,0.334028
3746.000000,0.338262
3747.000000,0.329580
3748.000000,0.302119
3749.000000,0.343500
3750.000000,0.421490
3751.000000,0.330428
3752.000000,0.325014
3753.000000,0.317940
3754.000000,0.295194
3755.000000,0.296211
3756.000000,0.305306
3757.000000,0.311513
3758.000000,0.299582
3759.000000,0.330788
3760.000000,0.318936
3761.000000,0.283444
3762.000000,0.263761
3763.000000,0.300449
3764.000000,0.264735
3765.000000,0.310315
3766.000000,0.352190
3767.000000,0.315261
3768.000000,0.341887
3769.000000,0.321593
3770.000000,0.331255
3771.000000,0.324502
3772.000000,0.265676
3773.000000,0.397893
3774.000000,0.290729
3775.000000,0.389157
3776.000000,0.301341
3777.000000,0.300860
3778.000000,0.347133
3779.000000,0.391134
3780.000000,0.350894
3781.000000,0.321812
3782.000000,0.328580
3783.000000,0.313297
3784.000000,0.315854
3785.000000,0.355726
3786.000000,0.269599
3787.000000,0.301995
3788.000000,0.330887
3789.000000,0.300756
3790.000000,0.299712
3791.000000,0.303958
3792.000000,0.338408
3793.000000,0.314962
3794.000000,0.265290
3795.000000,0.288625
3796.000000,0.310614
3797.000000,0.316617
3798.000000,0.357046
3799.000000,0.390918
3800.000000,0.343587
3801.000000,0.344106
3802.000000,0.300544
3803.000000,0.389163
3804.000000,0.314551
3805.000000,0.317632
3806.000000,0.361072
3807.000000,0.361920
3808.000000,0.346759
3809.000000,0.347421
3810.000000,0.357742
3811.000000,0.358224
3812.000000,0.314349
3813.000000,0.307977
3814.000000,0.305949
3815.000000,0.353776
3816.000000,0.364123
3817.000000,0.345616
3818.000000,0.312308
3819.000000,0.398135
3820.000000,0.396234
3821.000000,0.344319
3822.000000,0.359991
3823.000000,0.372986
3824.000000,0.368518
3825.000000,0.369956
3826.000000,0.366130
3827.000000,0.353527
3828.000000,0.359853
3829.000000,0.362055
3830.000000,0.399764
3831.000000,0.361384
3832.000000,0.372177
3833.000000,0.411468
3834.000000,0.354941
3835.000000,0.318003
3836.000000,0.310423
3837.000000,0.315416
3838.000000,0.338264
3839.000000,0.382103
3840.000000,0.344196
3841.000000,0.310180
3842.000000,0.298570
3843.000000,0.360760
3844.000000,0.289871
3845.000000,0.334082
3846.000000,0.281730
3847.000000,0.313463
3848.000000,0.333691
3849.000000,0.305048
3850.000000,0.314849
3851.000000,0.340338
3852.000000,0.334891
3853.000000,0.322323
3854.000000,0.350608
3855.000000,0.310597
3856.000000,0.391177
3857.000000,0.341664
3858.000000,0.314933
3859.000000,0.319075
3860.000000,0.341624
3861.000000,0.334456
3862.000000,0.366593
3863.000000,0.329766
3864.000000,0.285056
3865.000000,0.325247
3866.000000,0.324873
3867.000000,0.321205
3868.000000,0.314057
3869.000000,0.316044
3870.000000,0.355124
3871.000000,0.315861
3872.000000,0.310975
3873.000000,0.347692
3874.000000,0.372832
3875.000000,0.329995
3876.000000,0.365441
3877.000000,0.318051
3878.000000,0.332647
3879.000000,0.348252
3880.000000,0.337850
3881.000000,0.347791
3882.000000,0.352269
3883.000000,0.323793
3884.000000,0.354018
3885.000000,0.326096
3886.000000,0.328318
3887.000000,0.364518
3888.000000,0.327313
3889.000000,0.366257
3890.000000,0.293837
3891.000000,0.298304
3892.000000,0.335450
3893.000000,0.351556
3894.000000,0.320912
3895.000000,0.334915
3896.000000,0.367047
3897.000000,0.340401
3898.000000,0.331531
3899.000000,0.341992
3900.000000,0.334476
3901.000000,0.326338
3902.000000,0.327342
3903.000000,0.330402
3904.000000,0.338987
3905.000000,0.386680
3906.000000,0.366281
3907.000000,0.333774
3908.000000,0.366556
3909.000000,0.321024
3910.000000,0.321962
3911.000000,0.314730
3912.000000,0.330391
3913.000000,0.336941
3914.000000,0.312369
3915.000000,0.314885
3916.000000,0.316270
3917.000000,0.317373
3918.000000,0.312685
3919.000000,0.309889
3920.000000,0.272546
3921.000000,0.320064
3922.000000,0.334505
3923.000000,0.335321
3924.000000,0.337282
3925.000000,0.320056
3926.000000,0.291934
3927.000000,0.339651
3928.000000,0.333288
3929.000000,0.322461
3930.000000,0.369471
3931.000000,0.376087
3932.000000,0.354495
3933.000000,0.344860
3934.000000,0.366945
3935.000000,0.334272
3936.000000,0.323264
3937.000000,0.352006
3938.000000,0.294462
3939.000000,0.352313
3940.000000,0.325969
3941.000000,0.333949
3942.000000,0.331031
3943.000000,0.313873
3944.000000,0.310470
3945.000000,0.302378
3946.000000,0.314338
3947.000000,0.314875
3948.000000,0.307969
3949.000000,0.292114
3950.000000,0.251352
3951.000000,0.326557
3952.000000,0.291547
3953.000000,0.279169
3954.000000,0.287166
3955.000000,0.301057
3956.000000,0.335480
3957.000000,0.268857
3958.000000,0.306490
3959.000000,0.314502
3960.000000,0.289992
3961.000000,0.290325
3962.000000,0.325801
3963.000000,0.340840
3964.000000,0.305094
3965.000000,0.250502
3966.000000,0.331293
3967.000000,0.332379
3968.000000,0.330690
3969.000000,0.331534
3970.000000,0.368487
3971.000000,0.325806
3972.000000,0.337069
3973.000000,0.401598
3974.000000,0.338064
3975.000000,0.373039
3976.000000,0.366288
3977.000000,0.376706
3978.000000,0.364410
3979.000000,0.366940
3980.000000,0.313958
3981.000000,0.305208
3982.000000,0.339160
3983.000000,0.354705
3984.000000,0.356875
3985.000000,0.319903
3986.000000,0.325988
3987.000000,0.360278
3988.000000,0.401624
3989.000000,0.364768
3990.000000,0.355951
3991.000000,0.332191
3992.000000,0.371113
3993.000000,0.322664
3994.000000,0.322238
3995.000000,0.314978
3996.000000,0.343635
3997.000000,0.356891
3998.000000,0.322581
3999.000000,0.376690
4000.000000,0.338027
4001.000000,0.345235
4002.000000,0.321865
4003.000000,0.353628
4004.000000,0.394281
4005.000000,0.397492
4006.000000,0.330731
4007.000000,0.324802
4008.000000,0.369037
4009.000000,0.328388
4010.000000,0.362754
4011.000000,0.340714
4012.000000,0.393621
4013.000000,0.403867
4014.000000,0.466482
4015.000000,0.387737
4016.000000,0.378768
4017.000000,0.368973
4018.000000,0.408887
4019.000000,0.368697
4020.000000,0.371722
4021.000000,0.360583
4022.000000,0.330616
4023.000000,0.329762
4024.000000,0.363945
4025.000000,0.353131
4026.000000,0.350759
4027.000000,0.348684
4028.000000,0.441743
4029.000000,0.361345
4030.000000,0.357274
4031.000000,0.335307
4032.000000,0.344515
4033.000000,0.385475
4034.000000,0.335284
4035.000000,0.320127
4036.000000,0.349581
4037.000000,0.362806
4038.000000,0.367977
4039.000000,0.358428
4040.000000,0.353009
4041.000000,0.358201
4042.000000,0.366829
4043.000000,0.365561
4044.000000,0.307384
4045.000000,0.344629
4046.000000,0.353327
4047.000000,0.348486
4048.000000,0.359030
4049.000000,0.321663
4050.000000,0.320158
4051.000000,0.318310
4052.000000,0.359910
4053.000000,0.335429
4054.000000,0.370732
4055.000000,0.293956
4056.000000,0.361981
4057.000000,0.331961
4058.000000,0.346008
4059.000000,0.326476
4060.000000,0.321072
4061.000000,0.321903
4062.000000,0.259030
4063.000000,0.301276
4064.000000,0.307365
4065.000000,0.265329
4066.000000,0.322061
4067.000000,0.294388
4068.000000,0.275562
4069.000000,0.344086
4070.000000,0.297856
4071.000000,0.248836
4072.000000,0.280251
4073.000000,0.236208
4074.000000,0.288588
4075.000000,0.282004
4076.000000,0.345935
4077.000000,0.286986
4078.000000,0.308248
4079.000000,0.288839
4080.000000,0.307853
4081.000000,0.303193
4082.000000,0.310001
4083.000000,0.312110
4084.000000,0.303853
4085.000000,0.296730
4086.000000,0.288248
4087.000000,0.323839
4088.000000,0.297588
4089.000000,0.258799
4090.000000,0.272634
4091.000000,0.283083
4092.000000,0.279932
4093.000000,0.277694
4094.000000,0.276193
4095.000000,0.306898
4096.000000,0.318020
4097.000000,0.282479
4098.000000,0.352235
4099.000000,0.353366
4100.000000,0.344859
4101.000000,0.358693
4102.000000,0.361769
4103.000000,0.330190
4104.000000,0.311162
4105.000000,0.314359
4106.000000,0.316801
4107.000000,0.359198
4108.000000,0.328430
4109.000000,0.293149
4110.000000,0.346477
4111.000000,0.387113
4112.000000,0.319990
4113.000000,0.330267
4114.000000,0.335999
4115.000000,0.334570
4116.000000,0.348540
4117.000000,0.338481
4118.000000,0.283371
4119.000000,0.338211
4120.000000,0.292873
4121.000000,0.294268
4122.000000,0.329972
4123.000000,0.318309
4124.000000,0.309701
4125.000000,0.300329
4126.000000,0.286461
4127.000000,0.299408
4128.000000,0.276166
4129.000000,0.311264
4130.000000,0.354367
4131.000000,0.345350
4132.000000,0.380324
4133.000000,0.336556
4134.000000,0.385821
4135.000000,0.311992
4136.000000,0.297043
4137.000000,0.302464
4138.000000,0.321540
4139.000000,0.269535
4140.000000,0.263251
4141.000000,0.288583
4142.000000,0.319537
4143.000000,0.363156
4144.000000,0.359307
4145.000000,0.369356
4146.000000,0.333885
4147.000000,0.327733
4148.000000,0.340062
4149.000000,0.336375
4150.000000,0.338654
4151.000000,0.402338
4152.000000,0.391201
4153.000000,0.340147
4154.000000,0.390147
4155.000000,0.246734
4156.000000,0.254328
4157.000000,0.259610
4158.000000,0.320736
4159.000000,0.285552
4160.000000,0.299017
4161.000000,0.342996
4162.000000,0.316257
4163.000000,0.298521
4164.000000,0.277816
4165.000000,0.343351
4166.000000,0.343148
4167.000000,0.356342
4168.000000,0.339815
4169.000000,0.309846
4170.000000,0.264443
4171.000000,0.282404
4172.000000,0.306250
4173.000000,0.278654
4174.000000,0.249046
4175.000000,0.338681
4176.000000,0.314415
4177.000000,0.317985
4178.000000,0.360530
4179.000000,0.314651
4180.000000,0.274295
4181.000000,0.303106
4182.000000,0.362800
4183.000000,0.341437
4184.000000,0.313412
4185.000000,0.278021
4186.000000,0.292157
4187.000000,0.285625
4188.000000,0.297033
4189.000000,0.297563
4190.000000,0.257999
4191.000000,0.263844
4192.000000,0.330898
4193.000000,0.311545
4194.000000,0.315240
4195.000000,0.376724
4196.000000,0.403982
4197.000000,0.341051
4198.000000,0.310843
4199.000000,0.351000
4200.000000,0.345438
4201.000000,0.303862
4202.000000,0.338845
4203.000000,0.284795
4204.000000,0.268079
4205.000000,0.322971
4206.000000,0.347652
4207.000000,0.306441
4208.000000,0.319867
4209.000000,0.297765
4210.000000,0.298366
4211.000000,0.322946
4212.000000,0.364720
4213.000000,0.258989
4214.000000,0.267348
4215.000000,0.307661
4216.000000,0.300679
4217.000000,0.307151
4218.000000,0.348052
4219.000000,0.330658
4220.000000,0.335504
4221.000000,0.419502
4222.000000,0.368457
4223.000000,0.346566
4224.000000,0.323502
4225.000000,0.323637
4226.000000,0.323440
4227.000000,0.372438
4228.000000,0.336744
4229.000000,0.294740
4230.000000,0.295848
4231.000000,0.331984
4232.000000,0.333143
4233.000000,0.319121
4234.000000,0.366651
4235.000000,0.327994
4236.000000,0.352373
4237.000000,0.320183
4238.000000,0.290884
4239.000000,0.341787
4240.000000,0.326801
4241.000000,0.321498
4242.000000,0.332292
4243.000000,0.336253
4244.000000,0.302413
4245.000000,0.427437
4246.000000,0.361799
4247.000000,0.345113
4248.000000,0.357648
4249.000000,0.323916
4250.000000,0.336066
4251.000000,0.353663
4252.000000,0.351647
4253.000000,0.326555
4254.000000,0.315141
4255.000000,0.362894
4256.000000,0.294790
4257.000000,0.331201
4258.000000,0.336189
4259.000000,0.324896
4260.000000,0.330995
4261.000000,0.301999
4262.000000,0.299496
4263.000000,0.328020
4264.000000,0.321171
4265.000000,0.344796
4266.000000,0.383644
4267.000000,0.362600
4268.000000,0.374815
4269.000000,0.325476
4270.000000,0.302233
4271.000000,0.284984
4272.000000,0.349694
4273.000000,0.341227
4274.000000,0.341838
4275.000000,0.314193
4276.000000,0.343416
4277.000000,0.364014
4278.000000,0.359762
4279.000000,0.400258
4280.000000,0.361403
4281.000000,0.349400
4282.000000,0.342308
4283.000000,0.390416
4284.000000,0.325571
4285.000000,0.333110
4286.000000,0.312888
4287.000000,0.357421
4288.000000,0.316324
4289.000000,0.309275
4290.000000,0.348084
4291.000000,0.383196
4292.000000,0.380675
4293.000000,0.343113
4294.000000,0.327944
4295.000000,0.327477
4296.000000,0.330632
4297.000000,0.320667
4298.000000,0.322521
4299.000000,0.308793
4300.000000,0.342144
4301.000000,0.350222
4302.000000,0.315045
4303.000000,0.305762
4304.000000,0.304571
4305.000000,0.380783
4306.000000,0.357276
4307.000000,0.308851
4308.000000,0.392500
4309.000000,0.320255
4310.000000,0.371771
4311.000000,0.332245
4312.000000,0.296670
4313.000000,0.314504
4314.000000,0.282974
4315.000000,0.272522
4316.000000,0.372430
4317.000000,0.370390
4318.000000,0.412641
4319.000000,0.365888
4320.000000,0.358774
4321.000000,0.390266
4322.000000,0.342423
4323.000000,0.368045
4324.000000,0.379629
4325.000000,0.355024
4326.000000,0.358990
4327.000000,0.390203
4328.000000,0.330260
4329.000000,0.299157
4330.000000,0.331076
4331.000000,0.356533
4332.000000,0.391617
4333.000000,0.361524
4334.000000,0.366023
4335.000000,0.365088
4336.000000,0.322816
4337.000000,0.412757
4338.000000,0.406393
4339.000000,0.364898
4340.000000,0.392220
4341.000000,0.354829
4342.000000,0.366275
4343.000000,0.412214
4344.000000,0.336251
4345.000000,0.338868
4346.000000,0.424991
4347.000000,0.409350
4348.000000,0.350570
4349.000000,0.354268
4350.000000,0.396175
4351.000000,0.291015
4352.000000,0.371068
4353.000000,0.346784
4354.000000,0.418160
4355.000000,0.335546
4356.000000,0.302769
4357.000000,0.350447
4358.000000,0.343527
4359.000000,0.297314
4360.000000,0.325469
4361.000000,0.401028
4362.000000,0.370176
4363.000000,0.380359
4364.000000,0.394460
4365.000000,0.394733
4366.000000,0.363480
4367.000000,0.389242
4368.000000,0.378013
4369.000000,0.337268
4370.000000,0.298550
4371.000000,0.347733
4372.000000,0.357438
4373.000000,0.317323
4374.000000,0.303923
4375.000000,0.297791
4376.000000,0.365188
4377.000000,0.296354
4378.000000,0.321659
4379.000000,0.360323
4380.000000,0.328523
4381.000000,0.379251
4382.000000,0.380136
4383.000000,0.338941
4384.000000,0.300490
4385.000000,0.368058
4386.000000,0.305736
4387.000000,0.260171
4388.000000,0.313064
4389.000000,0.380628
4390.000000,0.418343
4391.000000,0.398569
4392.000000,0.405615
4393.000000,0.346486
4394.000000,0.387260
4395.000000,0.379855
4396.000000,0.381603
4397.000000,0.377195
4398.000000,0.411420
4399.000000,0.418503
4400.000000,0.448432
4401.000000,0.439770
4402.000000,0.333307
4403.000000,0.337356
4404.000000,0.344242
4405.000000,0.358753
4406.000000,0.387957
4407.000000,0.410904
4408.000000,0.358708
4409.000000,0.369666
4410.000000,0.308326
4411.000000,0.311348
4412.000000,0.328023
4413.000000,0.346588
4414.000000,0.321791
4415.000000,0.298476
4416.000000,0.324219
4417.000000,0.324261
4418.000000,0.341128
4419.000000,0.303468
4420.000000,0.309473
4421.000000,0.332632
4422.000000,0.341993
4423.000000,0.301939
4424.000000,0.342650
4425.000000,0.377013
4426.000000,0.327680
4427.000000,0.298637
4428.000000,0.293403
4429.000000,0.293346
4430.000000,0.270893
4431.000000,0.287704
4432.000000,0.339827
4433.000000,0.318308
4434.000000,0.319877
4435.000000,0.324555
4436.000000,0.322428
4437.000000,0.302303
4438.000000,0.279714
4439.000000,0.307047
4440.000000,0.322272
4441.000000,0.314324
4442.000000,0.355892
4443.000000,0.368162
4444.000000,0.338452
4445.000000,0.356496
4446.000000,0.319388
4447.000000,0.334167
4448.000000,0.291841
4449.000000,0.344442
4450.000000,0.314656
4451.000000,0.314363
4452.000000,0.342172
4453.000000,0.373627
4454.000000,0.295830
4455.000000,0.326799
4456.000000,0.341134
4457.000000,0.341679
4458.000000,0.310706
4459.000000,0.275013
4460.000000,0.367820
4461.000000,0.366264
4462.000000,0.357672
4463.000000,0.342616
4464.000000,0.335873
4465.000000,0.344244
4466.000000,0.383748
4467.000000,0.318126
4468.000000,0.354562
4469.000000,0.341691
4470.000000,0.419192
4471.000000,0.359879
4472.000000,0.411244
4473.000000,0.348747
4474.000000,0.354693
4475.000000,0.345900
4476.000000,0.341232
4477.000000,0.349200
4478.000000,0.291107
4479.000000,0.289493
4480.000000,0.383760
4481.000000,0.351990
4482.000000,0.342371
4483.000000,0.320976
4484.000000,0.323392
4485.000000,0.311304
4486.000000,0.310577
4487.000000,0.327977
4488.000000,0.335665
4489.000000,0.329890
4490.000000,0.330703
4491.000000,0.344387
4492.000000,0.352492
4493.000000,0.295211
4494.000000,0.298902
4495.000000,0.303193
4496.000000,0.358782
4497.000000,0.365350
4498.000000,0.311652
4499.000000,0.323206
4500.000000,0.373707
4501.000000,0.446571
4502.000000,0.428071
4503.000000,0.297901
4504.000000,0.391820
4505.000000,0.342568
4506.000000,0.350059
4507.000000,0.394927
4508.000000,0.403435
4509.000000,0.402475
4510.000000,0.399368
4511.000000,0.397995
4512.000000,0.353582
4513.000000,0.361650
4514.000000,0.354226
4515.000000,0.291397
4516.000000,0.323589
4517.000000,0.338579
4518.000000,0.306247
4519.000000,0.289601
4520.000000,0.309207
4521.000000,0.287123
4522.000000,0.283759
4523.000000,0.312906
4524.000000,0.293312
4525.000000,0.295322
4526.000000,0.326086
4527.000000,0.376131
4528.000000,0.412613
4529.000000,0.377384
4530.000000,0.315520
4531.000000,0.291911
4532.000000,0.267521
4533.000000,0.363718
4534.000000,0.339511
4535.000000,0.304730
4536.000000,0.334874
4537.000000,0.326373
4538.000000,0.323951
4539.000000,0.295360
4540.000000,0.289066
4541.000000,0.281664
4542.000000,0.302695
4543.000000,0.301462
4544.000000,0.276595
4545.000000,0.292505
4546.000000,0.326283
4547.000000,0.292889
4548.000000,0.390709
4549.000000,0.243032
4550.000000,0.292806
4551.000000,0.341338
4552.000000,0.356187
4553.000000,0.336892
4554.000000,0.310952
4555.000000,0.378099
4556.000000,0.333413
4557.000000,0.316816
4558.000000,0.378994
4559.000000,0.316314
4560.000000,0.353676
4561.000000,0.384436
4562.000000,0.373146
4563.000000,0.332208
4564.000000,0.336720
4565.000000,0.351162
4566.000000,0.348072
4567.000000,0.350743
4568.000000,0.341660
4569.000000,0.295116
4570.000000,0.360175
4571.000000,0.329015
4572.000000,0.363968
4573.000000,0.328892
4574.000000,0.320822
4575.000000,0.347408
4576.000000,0.300225
4577.000000,0.356954
4578.000000,0.368728
4579.000000,0.354063
4580.000000,0.318836
4581.000000,0.362561
4582.000000,0.365767
4583.000000,0.310353
4584.000000,0.346965
4585.000000,0.290124
4586.000000,0.290692
4587.000000,0.295365
4588.000000,0.339706
4589.000000,0.297212
4590.000000,0.261866
4591.000000,0.338666
4592.000000,0.307228
4593.000000,0.321559
4594.000000,0.277864
4595.000000,0.299869
4596.000000,0.290858
4597.000000,0.259872
4598.000000,0.280395
4599.000000,0.247242
4600.000000,0.241057
4601.000000,0.315582
4602.000000,0.346786
4603.000000,0.277305
4604.000000,0.290780
4605.000000,0.255053
4606.000000,0.275458
4607.000000,0.288105
4608.000000,0.287620
4609.000000,0.256507
4610.000000,0.311979
4611.000000,0.303074
4612.000000,0.274818
4613.000000,0.295930
4614.000000,0.329663
4615.000000,0.307415
4616.000000,0.341194
4617.000000,0.277962
4618.000000,0.304104
4619.000000,0.406041
4620.000000,0.358329
4621.000000,0.339524
4622.000000,0.301015
4623.000000,0.251094
4624.000000,0.282839
4625.000000,0.292045
4626.000000,0.278374
4627.000000,0.282228
4628.000000,0.287619
4629.000000,0.322143
4630.000000,0.283628
4631.000000,0.320750
4632.000000,0.322410
4633.000000,0.320486
4634.000000,0.280383
4635.000000,0.328005
4636.000000,0.304749
4637.000000,0.307976
4638.000000,0.335685
4639.000000,0.334401
4640.000000,0.299911
4641.000000,0.328593
4642.000000,0.334128
4643.000000,0.298224
4644.000000,0.331715
4645.000000,0.299240
4646.000000,0.294131
4647.000000,0.292731
4648.000000,0.289374
4649.000000,0.340894
4650.000000,0.321171
4651.000000,0.312246
4652.000000,0.310642
4653.000000,0.291396
4654.000000,0.285344
4655.000000,0.287642
4656.000000,0.296542
4657.000000,0.348076
4658.000000,0.240762
4659.000000,0.246857
4660.000000,0.260007
4661.000000,0.324532
4662.000000,0.316174
4663.000000,0.301380
4664.000000,0.327499
4665.000000,0.333158
4666.000000,0.304531
4667.000000,0.314613
4668.000000,0.342664
4669.000000,0.296706
4670.000000,0.291989
4671.000000,0.285505
4672.000000,0.294676
4673.000000,0.302313
4674.000000,0.303435
4675.000000,0.299820
4676.000000,0.313622
4677.000000,0.299154
4678.000000,0.279515
4679.000000,0.278760
4680.000000,0.310155
4681.000000,0.313949
4682.000000,0.307893
4683.000000,0.295608
4684.000000,0.296743
4685.000000,0.331739
4686.000000,0.349135
4687.000000,0.312528
4688.000000,0.325452
4689.000000,0.322122
4690.000000,0.273268
4691.000000,0.297648
4692.000000,0.341105
4693.000000,0.308912
4694.000000,0.323606
4695.000000,0.348098
4696.000000,0.356395
4697.000000,0.348631
4698.000000,0.374316
4699.000000,0.280979
4700.000000,0.316522
4701.000000,0.326649
4702.000000,0.294456
4703.000000,0.302909
4704.000000,0.345178
4705.000000,0.341027
4706.000000,0.295462
4707.000000,0.340566
4708.000000,0.340245
4709.000000,0.307819
4710.000000,0.323073
4711.000000,0.306999
4712.000000,0.300409
4713.000000,0.316753
4714.000000,0.342345
4715.000000,0.314534
4716.000000,0.372135
4717.000000,0.364840
4718.000000,0.329597
4719.000000,0.335006
4720.000000,0.298857
4721.000000,0.303939
4722.000000,0.306586
4723.000000,0.276131
4724.000000,0.308511
4725.000000,0.306880
4726.000000,0.250867
4727.000000,0.320278
4728.000000,0.355118
4729.000000,0.359156
4730.000000,0.311697
4731.000000,0.315477
4732.000000,0.311422
4733.000000,0.328033
4734.000000,0.300481
4735.000000,0.272052
4736.000000,0.339271
4737.000000,0.318661
4738.000000,0.352002
4739.000000,0.339705
4740.000000,0.371790
4741.000000,0.309189
4742.000000,0.301026
4743.000000,0.266333
4744.000000,0.338474
4745.000000,0.303579
4746.000000,0.271386
4747.000000,0.303161
4748.000000,0.361635
4749.000000,0.366531
4750.000000,0.335614
4751.000000,0.378651
4752.000000,0.274517
4753.000000,0.339080
4754.000000,0.360189
4755.000000,0.377772
4756.000000,0.384857
4757.000000,0.342832
4758.000000,0.369022
4759.000000,0.380038
4760.000000,0.378257
4761.000000,0.306430
4762.000000,0.260196
4763.000000,0.308100
4764.000000,0.386314
4765.000000,0.358800
4766.000000,0.367980
4767.000000,0.377566
4768.000000,0.376216
4769.000000,0.394051
4770.000000,0.304992
4771.000000,0.320712
4772.000000,0.361514
4773.000000,0.362895
4774.000000,0.305155
4775.000000,0.306702
4776.000000,0.317405
4777.000000,0.365787
4778.000000,0.348767
4779.000000,0.322963
4780.000000,0.321544
4781.000000,0.323587
4782.000000,0.377844
4783.000000,0.376610
